# v / cm^-1  DOS / states (q-point cm^-1)^-1
  -130.000    0.0108
  -129.000    0.0109
  -128.000    0.0110
  -127.000    0.0111
  -126.000    0.0112
  -125.000    0.0113
  -124.000    0.0114
  -123.000    0.0115
  -122.000    0.0116
  -121.000    0.0117
  -120.000    0.0118
  -119.000    0.0119
  -118.000    0.0120
  -117.000    0.0121
  -116.000    0.0122
  -115.000    0.0123
  -114.000    0.0124
  -113.000    0.0125
  -112.000    0.0126
  -111.000    0.0128
  -110.000    0.0129
  -109.000    0.0130
  -108.000    0.0131
  -107.000    0.0133
  -106.000    0.0134
  -105.000    0.0135
  -104.000    0.0136
  -103.000    0.0138
  -102.000    0.0139
  -101.000    0.0141
  -100.000    0.0142
   -99.000    0.0144
   -98.000    0.0145
   -97.000    0.0147
   -96.000    0.0148
   -95.000    0.0150
   -94.000    0.0151
   -93.000    0.0153
   -92.000    0.0155
   -91.000    0.0157
   -90.000    0.0158
   -89.000    0.0160
   -88.000    0.0162
   -87.000    0.0164
   -86.000    0.0166
   -85.000    0.0168
   -84.000    0.0170
   -83.000    0.0172
   -82.000    0.0174
   -81.000    0.0177
   -80.000    0.0179
   -79.000    0.0181
   -78.000    0.0184
   -77.000    0.0186
   -76.000    0.0189
   -75.000    0.0191
   -74.000    0.0194
   -73.000    0.0197
   -72.000    0.0200
   -71.000    0.0203
   -70.000    0.0206
   -69.000    0.0209
   -68.000    0.0212
   -67.000    0.0216
   -66.000    0.0219
   -65.000    0.0223
   -64.000    0.0227
   -63.000    0.0231
   -62.000    0.0235
   -61.000    0.0239
   -60.000    0.0244
   -59.000    0.0248
   -58.000    0.0253
   -57.000    0.0258
   -56.000    0.0264
   -55.000    0.0269
   -54.000    0.0275
   -53.000    0.0282
   -52.000    0.0289
   -51.000    0.0296
   -50.000    0.0303
   -49.000    0.0311
   -48.000    0.0320
   -47.000    0.0330
   -46.000    0.0340
   -45.000    0.0351
   -44.000    0.0363
   -43.000    0.0377
   -42.000    0.0391
   -41.000    0.0408
   -40.000    0.0426
   -39.000    0.0447
   -38.000    0.0471
   -37.000    0.0498
   -36.000    0.0531
   -35.000    0.0568
   -34.000    0.0613
   -33.000    0.0667
   -32.000    0.0733
   -31.000    0.0811
   -30.000    0.0903
   -29.000    0.1009
   -28.000    0.1125
   -27.000    0.1244
   -26.000    0.1360
   -25.000    0.1467
   -24.000    0.1564
   -23.000    0.1651
   -22.000    0.1727
   -21.000    0.1789
   -20.000    0.1836
   -19.000    0.1866
   -18.000    0.1878
   -17.000    0.1873
   -16.000    0.1855
   -15.000    0.1825
   -14.000    0.1788
   -13.000    0.1747
   -12.000    0.1703
   -11.000    0.1658
   -10.000    0.1613
    -9.000    0.1569
    -8.000    0.1526
    -7.000    0.1485
    -6.000    0.1447
    -5.000    0.1414
    -4.000    0.1387
    -3.000    0.1369
    -2.000    0.1363
    -1.000    0.1371
     0.000    0.1395
     1.000    0.1437
     2.000    0.1495
     3.000    0.1570
     4.000    0.1660
     5.000    0.1762
     6.000    0.1877
     7.000    0.2003
     8.000    0.2141
     9.000    0.2289
    10.000    0.2449
    11.000    0.2620
    12.000    0.2801
    13.000    0.2990
    14.000    0.3184
    15.000    0.3381
    16.000    0.3583
    17.000    0.3791
    18.000    0.4006
    19.000    0.4228
    20.000    0.4459
    21.000    0.4700
    22.000    0.4955
    23.000    0.5226
    24.000    0.5514
    25.000    0.5819
    26.000    0.6144
    27.000    0.6489
    28.000    0.6855
    29.000    0.7244
    30.000    0.7653
    31.000    0.8074
    32.000    0.8490
    33.000    0.8873
    34.000    0.9202
    35.000    0.9466
    36.000    0.9670
    37.000    0.9829
    38.000    0.9962
    39.000    1.0093
    40.000    1.0246
    41.000    1.0433
    42.000    1.0657
    43.000    1.0911
    44.000    1.1188
    45.000    1.1476
    46.000    1.1768
    47.000    1.2049
    48.000    1.2303
    49.000    1.2511
    50.000    1.2656
    51.000    1.2723
    52.000    1.2707
    53.000    1.2611
    54.000    1.2445
    55.000    1.2226
    56.000    1.1974
    57.000    1.1710
    58.000    1.1459
    59.000    1.1250
    60.000    1.1107
    61.000    1.1045
    62.000    1.1062
    63.000    1.1143
    64.000    1.1268
    65.000    1.1414
    66.000    1.1564
    67.000    1.1706
    68.000    1.1831
    69.000    1.1931
    70.000    1.2002
    71.000    1.2043
    72.000    1.2055
    73.000    1.2040
    74.000    1.1999
    75.000    1.1932
    76.000    1.1838
    77.000    1.1719
    78.000    1.1575
    79.000    1.1410
    80.000    1.1231
    81.000    1.1050
    82.000    1.0876
    83.000    1.0713
    84.000    1.0564
    85.000    1.0434
    86.000    1.0331
    87.000    1.0265
    88.000    1.0244
    89.000    1.0280
    90.000    1.0377
    91.000    1.0535
    92.000    1.0744
    93.000    1.0982
    94.000    1.1225
    95.000    1.1449
    96.000    1.1644
    97.000    1.1818
    98.000    1.1982
    99.000    1.2140
   100.000    1.2277
   101.000    1.2368
   102.000    1.2392
   103.000    1.2342
   104.000    1.2239
   105.000    1.2117
   106.000    1.2017
   107.000    1.1962
   108.000    1.1969
   109.000    1.2045
   110.000    1.2193
   111.000    1.2401
   112.000    1.2650
   113.000    1.2916
   114.000    1.3175
   115.000    1.3410
   116.000    1.3618
   117.000    1.3804
   118.000    1.3975
   119.000    1.4126
   120.000    1.4246
   121.000    1.4326
   122.000    1.4358
   123.000    1.4327
   124.000    1.4217
   125.000    1.4010
   126.000    1.3701
   127.000    1.3305
   128.000    1.2851
   129.000    1.2375
   130.000    1.1910
   131.000    1.1476
   132.000    1.1087
   133.000    1.0755
   134.000    1.0500
   135.000    1.0342
   136.000    1.0304
   137.000    1.0402
   138.000    1.0641
   139.000    1.1016
   140.000    1.1497
   141.000    1.2035
   142.000    1.2566
   143.000    1.3039
   144.000    1.3436
   145.000    1.3774
   146.000    1.4097
   147.000    1.4441
   148.000    1.4822
   149.000    1.5222
   150.000    1.5606
   151.000    1.5932
   152.000    1.6159
   153.000    1.6252
   154.000    1.6192
   155.000    1.5982
   156.000    1.5641
   157.000    1.5190
   158.000    1.4644
   159.000    1.4026
   160.000    1.3373
   161.000    1.2729
   162.000    1.2134
   163.000    1.1614
   164.000    1.1181
   165.000    1.0842
   166.000    1.0598
   167.000    1.0447
   168.000    1.0375
   169.000    1.0366
   170.000    1.0396
   171.000    1.0442
   172.000    1.0485
   173.000    1.0513
   174.000    1.0528
   175.000    1.0533
   176.000    1.0529
   177.000    1.0511
   178.000    1.0471
   179.000    1.0407
   180.000    1.0320
   181.000    1.0222
   182.000    1.0116
   183.000    1.0005
   184.000    0.9887
   185.000    0.9769
   186.000    0.9663
   187.000    0.9579
   188.000    0.9519
   189.000    0.9477
   190.000    0.9441
   191.000    0.9394
   192.000    0.9319
   193.000    0.9195
   194.000    0.9010
   195.000    0.8768
   196.000    0.8492
   197.000    0.8210
   198.000    0.7948
   199.000    0.7725
   200.000    0.7548
   201.000    0.7425
   202.000    0.7359
   203.000    0.7353
   204.000    0.7407
   205.000    0.7523
   206.000    0.7699
   207.000    0.7927
   208.000    0.8188
   209.000    0.8454
   210.000    0.8691
   211.000    0.8872
   212.000    0.8983
   213.000    0.9034
   214.000    0.9049
   215.000    0.9059
   216.000    0.9084
   217.000    0.9133
   218.000    0.9202
   219.000    0.9283
   220.000    0.9377
   221.000    0.9492
   222.000    0.9635
   223.000    0.9806
   224.000    0.9985
   225.000    1.0141
   226.000    1.0243
   227.000    1.0273
   228.000    1.0236
   229.000    1.0149
   230.000    1.0031
   231.000    0.9899
   232.000    0.9759
   233.000    0.9616
   234.000    0.9475
   235.000    0.9351
   236.000    0.9265
   237.000    0.9236
   238.000    0.9269
   239.000    0.9360
   240.000    0.9498
   241.000    0.9677
   242.000    0.9896
   243.000    1.0155
   244.000    1.0441
   245.000    1.0726
   246.000    1.0978
   247.000    1.1167
   248.000    1.1279
   249.000    1.1306
   250.000    1.1252
   251.000    1.1124
   252.000    1.0929
   253.000    1.0675
   254.000    1.0375
   255.000    1.0050
   256.000    0.9722
   257.000    0.9409
   258.000    0.9128
   259.000    0.8896
   260.000    0.8721
   261.000    0.8607
   262.000    0.8539
   263.000    0.8497
   264.000    0.8464
   265.000    0.8444
   266.000    0.8459
   267.000    0.8539
   268.000    0.8702
   269.000    0.8941
   270.000    0.9228
   271.000    0.9534
   272.000    0.9840
   273.000    1.0148
   274.000    1.0464
   275.000    1.0799
   276.000    1.1153
   277.000    1.1515
   278.000    1.1861
   279.000    1.2155
   280.000    1.2362
   281.000    1.2463
   282.000    1.2459
   283.000    1.2365
   284.000    1.2201
   285.000    1.1976
   286.000    1.1687
   287.000    1.1337
   288.000    1.0946
   289.000    1.0554
   290.000    1.0204
   291.000    0.9926
   292.000    0.9714
   293.000    0.9543
   294.000    0.9393
   295.000    0.9266
   296.000    0.9188
   297.000    0.9183
   298.000    0.9262
   299.000    0.9412
   300.000    0.9608
   301.000    0.9819
   302.000    1.0017
   303.000    1.0182
   304.000    1.0310
   305.000    1.0411
   306.000    1.0512
   307.000    1.0649
   308.000    1.0855
   309.000    1.1148
   310.000    1.1529
   311.000    1.1978
   312.000    1.2466
   313.000    1.2960
   314.000    1.3423
   315.000    1.3812
   316.000    1.4076
   317.000    1.4174
   318.000    1.4096
   319.000    1.3875
   320.000    1.3580
   321.000    1.3285
   322.000    1.3040
   323.000    1.2864
   324.000    1.2749
   325.000    1.2676
   326.000    1.2614
   327.000    1.2521
   328.000    1.2342
   329.000    1.2022
   330.000    1.1532
   331.000    1.0889
   332.000    1.0155
   333.000    0.9406
   334.000    0.8699
   335.000    0.8068
   336.000    0.7520
   337.000    0.7056
   338.000    0.6670
   339.000    0.6362
   340.000    0.6135
   341.000    0.5992
   342.000    0.5937
   343.000    0.5973
   344.000    0.6099
   345.000    0.6304
   346.000    0.6576
   347.000    0.6891
   348.000    0.7223
   349.000    0.7534
   350.000    0.7784
   351.000    0.7927
   352.000    0.7921
   353.000    0.7729
   354.000    0.7341
   355.000    0.6795
   356.000    0.6160
   357.000    0.5515
   358.000    0.4914
   359.000    0.4390
   360.000    0.3953
   361.000    0.3607
   362.000    0.3344
   363.000    0.3158
   364.000    0.3041
   365.000    0.2989
   366.000    0.3000
   367.000    0.3074
   368.000    0.3213
   369.000    0.3409
   370.000    0.3646
   371.000    0.3886
   372.000    0.4080
   373.000    0.4188
   374.000    0.4197
   375.000    0.4128
   376.000    0.4024
   377.000    0.3926
   378.000    0.3869
   379.000    0.3875
   380.000    0.3955
   381.000    0.4109
   382.000    0.4317
   383.000    0.4541
   384.000    0.4736
   385.000    0.4869
   386.000    0.4935
   387.000    0.4947
   388.000    0.4925
   389.000    0.4886
   390.000    0.4845
   391.000    0.4815
   392.000    0.4809
   393.000    0.4834
   394.000    0.4891
   395.000    0.4977
   396.000    0.5088
   397.000    0.5223
   398.000    0.5383
   399.000    0.5570
   400.000    0.5782
   401.000    0.6018
   402.000    0.6270
   403.000    0.6526
   404.000    0.6773
   405.000    0.6996
   406.000    0.7189
   407.000    0.7349
   408.000    0.7477
   409.000    0.7572
   410.000    0.7633
   411.000    0.7659
   412.000    0.7658
   413.000    0.7637
   414.000    0.7601
   415.000    0.7549
   416.000    0.7474
   417.000    0.7364
   418.000    0.7214
   419.000    0.7036
   420.000    0.6852
   421.000    0.6687
   422.000    0.6552
   423.000    0.6443
   424.000    0.6350
   425.000    0.6264
   426.000    0.6180
   427.000    0.6098
   428.000    0.6021
   429.000    0.5952
   430.000    0.5894
   431.000    0.5848
   432.000    0.5815
   433.000    0.5792
   434.000    0.5780
   435.000    0.5787
   436.000    0.5827
   437.000    0.5916
   438.000    0.6070
   439.000    0.6297
   440.000    0.6597
   441.000    0.6961
   442.000    0.7374
   443.000    0.7813
   444.000    0.8258
   445.000    0.8689
   446.000    0.9092
   447.000    0.9463
   448.000    0.9808
   449.000    1.0141
   450.000    1.0472
   451.000    1.0808
   452.000    1.1155
   453.000    1.1520
   454.000    1.1916
   455.000    1.2347
   456.000    1.2808
   457.000    1.3281
   458.000    1.3752
   459.000    1.4230
   460.000    1.4746
   461.000    1.5330
   462.000    1.5971
   463.000    1.6614
   464.000    1.7174
   465.000    1.7571
   466.000    1.7761
   467.000    1.7752
   468.000    1.7592
   469.000    1.7342
   470.000    1.7044
   471.000    1.6722
   472.000    1.6384
   473.000    1.6024
   474.000    1.5627
   475.000    1.5189
   476.000    1.4733
   477.000    1.4304
   478.000    1.3938
   479.000    1.3655
   480.000    1.3463
   481.000    1.3356
   482.000    1.3324
   483.000    1.3356
   484.000    1.3454
   485.000    1.3641
   486.000    1.3944
   487.000    1.4384
   488.000    1.4952
   489.000    1.5600
   490.000    1.6252
   491.000    1.6840
   492.000    1.7333
   493.000    1.7741
   494.000    1.8090
   495.000    1.8383
   496.000    1.8583
   497.000    1.8625
   498.000    1.8434
   499.000    1.7967
   500.000    1.7229
   501.000    1.6286
   502.000    1.5249
   503.000    1.4240
   504.000    1.3353
   505.000    1.2638
   506.000    1.2107
   507.000    1.1746
   508.000    1.1523
   509.000    1.1391
   510.000    1.1299
   511.000    1.1213
   512.000    1.1119
   513.000    1.1017
   514.000    1.0915
   515.000    1.0823
   516.000    1.0755
   517.000    1.0724
   518.000    1.0742
   519.000    1.0808
   520.000    1.0908
   521.000    1.1017
   522.000    1.1115
   523.000    1.1193
   524.000    1.1249
   525.000    1.1276
   526.000    1.1259
   527.000    1.1194
   528.000    1.1096
   529.000    1.0998
   530.000    1.0937
   531.000    1.0938
   532.000    1.0994
   533.000    1.1062
   534.000    1.1067
   535.000    1.0924
   536.000    1.0579
   537.000    1.0040
   538.000    0.9377
   539.000    0.8692
   540.000    0.8070
   541.000    0.7560
   542.000    0.7167
   543.000    0.6863
   544.000    0.6606
   545.000    0.6359
   546.000    0.6098
   547.000    0.5823
   548.000    0.5552
   549.000    0.5312
   550.000    0.5133
   551.000    0.5040
   552.000    0.5052
   553.000    0.5178
   554.000    0.5425
   555.000    0.5789
   556.000    0.6253
   557.000    0.6776
   558.000    0.7309
   559.000    0.7809
   560.000    0.8268
   561.000    0.8699
   562.000    0.9123
   563.000    0.9551
   564.000    0.9985
   565.000    1.0420
   566.000    1.0854
   567.000    1.1283
   568.000    1.1700
   569.000    1.2114
   570.000    1.2545
   571.000    1.3018
   572.000    1.3534
   573.000    1.4054
   574.000    1.4473
   575.000    1.4637
   576.000    1.4416
   577.000    1.3787
   578.000    1.2873
   579.000    1.1869
   580.000    1.0949
   581.000    1.0205
   582.000    0.9658
   583.000    0.9284
   584.000    0.9046
   585.000    0.8909
   586.000    0.8842
   587.000    0.8816
   588.000    0.8814
   589.000    0.8836
   590.000    0.8899
   591.000    0.9023
   592.000    0.9202
   593.000    0.9399
   594.000    0.9566
   595.000    0.9676
   596.000    0.9747
   597.000    0.9815
   598.000    0.9915
   599.000    1.0073
   600.000    1.0300
   601.000    1.0576
   602.000    1.0846
   603.000    1.1025
   604.000    1.1046
   605.000    1.0886
   606.000    1.0573
   607.000    1.0159
   608.000    0.9711
   609.000    0.9300
   610.000    0.8992
   611.000    0.8847
   612.000    0.8910
   613.000    0.9210
   614.000    0.9762
   615.000    1.0567
   616.000    1.1599
   617.000    1.2775
   618.000    1.3929
   619.000    1.4835
   620.000    1.5300
   621.000    1.5256
   622.000    1.4773
   623.000    1.4005
   624.000    1.3108
   625.000    1.2187
   626.000    1.1295
   627.000    1.0473
   628.000    0.9756
   629.000    0.9158
   630.000    0.8667
   631.000    0.8253
   632.000    0.7885
   633.000    0.7534
   634.000    0.7170
   635.000    0.6772
   636.000    0.6324
   637.000    0.5825
   638.000    0.5295
   639.000    0.4772
   640.000    0.4290
   641.000    0.3874
   642.000    0.3529
   643.000    0.3253
   644.000    0.3036
   645.000    0.2869
   646.000    0.2745
   647.000    0.2657
   648.000    0.2600
   649.000    0.2572
   650.000    0.2572
   651.000    0.2600
   652.000    0.2657
   653.000    0.2745
   654.000    0.2871
   655.000    0.3040
   656.000    0.3262
   657.000    0.3550
   658.000    0.3921
   659.000    0.4394
   660.000    0.4990
   661.000    0.5725
   662.000    0.6587
   663.000    0.7516
   664.000    0.8386
   665.000    0.9029
   666.000    0.9320
   667.000    0.9243
   668.000    0.8887
   669.000    0.8387
   670.000    0.7879
   671.000    0.7473
   672.000    0.7237
   673.000    0.7200
   674.000    0.7343
   675.000    0.7605
   676.000    0.7899
   677.000    0.8135
   678.000    0.8253
   679.000    0.8240
   680.000    0.8120
   681.000    0.7949
   682.000    0.7801
   683.000    0.7756
   684.000    0.7888
   685.000    0.8245
   686.000    0.8851
   687.000    0.9695
   688.000    1.0716
   689.000    1.1795
   690.000    1.2761
   691.000    1.3444
   692.000    1.3747
   693.000    1.3699
   694.000    1.3412
   695.000    1.3013
   696.000    1.2585
   697.000    1.2172
   698.000    1.1795
   699.000    1.1475
   700.000    1.1241
   701.000    1.1111
   702.000    1.1087
   703.000    1.1138
   704.000    1.1219
   705.000    1.1300
   706.000    1.1371
   707.000    1.1427
   708.000    1.1441
   709.000    1.1381
   710.000    1.1239
   711.000    1.1044
   712.000    1.0844
   713.000    1.0677
   714.000    1.0556
   715.000    1.0486
   716.000    1.0481
   717.000    1.0553
   718.000    1.0677
   719.000    1.0777
   720.000    1.0760
   721.000    1.0575
   722.000    1.0223
   723.000    0.9742
   724.000    0.9183
   725.000    0.8601
   726.000    0.8050
   727.000    0.7576
   728.000    0.7207
   729.000    0.6952
   730.000    0.6801
   731.000    0.6730
   732.000    0.6705
   733.000    0.6690
   734.000    0.6652
   735.000    0.6554
   736.000    0.6371
   737.000    0.6093
   738.000    0.5735
   739.000    0.5326
   740.000    0.4910
   741.000    0.4529
   742.000    0.4215
   743.000    0.3984
   744.000    0.3842
   745.000    0.3784
   746.000    0.3807
   747.000    0.3903
   748.000    0.4064
   749.000    0.4283
   750.000    0.4546
   751.000    0.4840
   752.000    0.5142
   753.000    0.5428
   754.000    0.5678
   755.000    0.5892
   756.000    0.6096
   757.000    0.6327
   758.000    0.6618
   759.000    0.6985
   760.000    0.7427
   761.000    0.7935
   762.000    0.8491
   763.000    0.9062
   764.000    0.9594
   765.000    1.0007
   766.000    1.0221
   767.000    1.0202
   768.000    0.9991
   769.000    0.9671
   770.000    0.9307
   771.000    0.8919
   772.000    0.8485
   773.000    0.7972
   774.000    0.7365
   775.000    0.6689
   776.000    0.6004
   777.000    0.5369
   778.000    0.4823
   779.000    0.4381
   780.000    0.4038
   781.000    0.3782
   782.000    0.3599
   783.000    0.3478
   784.000    0.3409
   785.000    0.3388
   786.000    0.3411
   787.000    0.3476
   788.000    0.3585
   789.000    0.3741
   790.000    0.3949
   791.000    0.4218
   792.000    0.4559
   793.000    0.4989
   794.000    0.5526
   795.000    0.6197
   796.000    0.7030
   797.000    0.8055
   798.000    0.9292
   799.000    1.0735
   800.000    1.2321
   801.000    1.3922
   802.000    1.5378
   803.000    1.6574
   804.000    1.7483
   805.000    1.8157
   806.000    1.8696
   807.000    1.9248
   808.000    1.9980
   809.000    2.0978
   810.000    2.2112
   811.000    2.2998
   812.000    2.3179
   813.000    2.2457
   814.000    2.1056
   815.000    1.9424
   816.000    1.7926
   817.000    1.6723
   818.000    1.5821
   819.000    1.5132
   820.000    1.4551
   821.000    1.3999
   822.000    1.3446
   823.000    1.2878
   824.000    1.2270
   825.000    1.1604
   826.000    1.0897
   827.000    1.0208
   828.000    0.9597
   829.000    0.9091
   830.000    0.8681
   831.000    0.8339
   832.000    0.8046
   833.000    0.7807
   834.000    0.7651
   835.000    0.7617
   836.000    0.7737
   837.000    0.8024
   838.000    0.8456
   839.000    0.8966
   840.000    0.9446
   841.000    0.9789
   842.000    0.9950
   843.000    0.9970
   844.000    0.9942
   845.000    0.9942
   846.000    1.0002
   847.000    1.0112
   848.000    1.0232
   849.000    1.0313
   850.000    1.0303
   851.000    1.0170
   852.000    0.9905
   853.000    0.9530
   854.000    0.9092
   855.000    0.8647
   856.000    0.8248
   857.000    0.7931
   858.000    0.7709
   859.000    0.7571
   860.000    0.7495
   861.000    0.7460
   862.000    0.7456
   863.000    0.7485
   864.000    0.7549
   865.000    0.7646
   866.000    0.7769
   867.000    0.7914
   868.000    0.8090
   869.000    0.8321
   870.000    0.8642
   871.000    0.9084
   872.000    0.9668
   873.000    1.0383
   874.000    1.1176
   875.000    1.1948
   876.000    1.2607
   877.000    1.3130
   878.000    1.3603
   879.000    1.4196
   880.000    1.5088
   881.000    1.6402
   882.000    1.8177
   883.000    2.0356
   884.000    2.2803
   885.000    2.5348
   886.000    2.7787
   887.000    2.9837
   888.000    3.1143
   889.000    3.1461
   890.000    3.0817
   891.000    2.9471
   892.000    2.7745
   893.000    2.5884
   894.000    2.4035
   895.000    2.2273
   896.000    2.0610
   897.000    1.9019
   898.000    1.7498
   899.000    1.6073
   900.000    1.4770
   901.000    1.3590
   902.000    1.2513
   903.000    1.1506
   904.000    1.0533
   905.000    0.9580
   906.000    0.8664
   907.000    0.7819
   908.000    0.7080
   909.000    0.6465
   910.000    0.5976
   911.000    0.5607
   912.000    0.5347
   913.000    0.5186
   914.000    0.5119
   915.000    0.5143
   916.000    0.5263
   917.000    0.5489
   918.000    0.5838
   919.000    0.6334
   920.000    0.7007
   921.000    0.7896
   922.000    0.9032
   923.000    1.0417
   924.000    1.1991
   925.000    1.3592
   926.000    1.4977
   927.000    1.5883
   928.000    1.6085
   929.000    1.5462
   930.000    1.4124
   931.000    1.2400
   932.000    1.0643
   933.000    0.9073
   934.000    0.7769
   935.000    0.6726
   936.000    0.5906
   937.000    0.5265
   938.000    0.4767
   939.000    0.4381
   940.000    0.4084
   941.000    0.3858
   942.000    0.3692
   943.000    0.3576
   944.000    0.3504
   945.000    0.3473
   946.000    0.3479
   947.000    0.3522
   948.000    0.3603
   949.000    0.3726
   950.000    0.3893
   951.000    0.4113
   952.000    0.4393
   953.000    0.4746
   954.000    0.5189
   955.000    0.5743
   956.000    0.6438
   957.000    0.7308
   958.000    0.8394
   959.000    0.9733
   960.000    1.1342
   961.000    1.3191
   962.000    1.5192
   963.000    1.7251
   964.000    1.9365
   965.000    2.1609
   966.000    2.3952
   967.000    2.6081
   968.000    2.7444
   969.000    2.7540
   970.000    2.6216
   971.000    2.3762
   972.000    2.0731
   973.000    1.7663
   974.000    1.4909
   975.000    1.2607
   976.000    1.0761
   977.000    0.9311
   978.000    0.8187
   979.000    0.7323
   980.000    0.6668
   981.000    0.6183
   982.000    0.5842
   983.000    0.5626
   984.000    0.5527
   985.000    0.5541
   986.000    0.5674
   987.000    0.5938
   988.000    0.6352
   989.000    0.6941
   990.000    0.7732
   991.000    0.8740
   992.000    0.9942
   993.000    1.1253
   994.000    1.2525
   995.000    1.3625
   996.000    1.4494
   997.000    1.5079
   998.000    1.5220
   999.000    1.4721
  1000.000    1.3581
  1001.000    1.2057
  1002.000    1.0476
  1003.000    0.9060
  1004.000    0.7899
  1005.000    0.6998
  1006.000    0.6328
  1007.000    0.5856
  1008.000    0.5553
  1009.000    0.5400
  1010.000    0.5387
  1011.000    0.5516
  1012.000    0.5795
  1013.000    0.6247
  1014.000    0.6902
  1015.000    0.7798
  1016.000    0.8974
  1017.000    1.0444
  1018.000    1.2147
  1019.000    1.3879
  1020.000    1.5275
  1021.000    1.5928
  1022.000    1.5628
  1023.000    1.4476
  1024.000    1.2792
  1025.000    1.0941
  1026.000    0.9198
  1027.000    0.7696
  1028.000    0.6463
  1029.000    0.5473
  1030.000    0.4684
  1031.000    0.4053
  1032.000    0.3545
  1033.000    0.3132
  1034.000    0.2793
  1035.000    0.2512
  1036.000    0.2277
  1037.000    0.2079
  1038.000    0.1909
  1039.000    0.1764
  1040.000    0.1638
  1041.000    0.1528
  1042.000    0.1432
  1043.000    0.1347
  1044.000    0.1272
  1045.000    0.1204
  1046.000    0.1144
  1047.000    0.1090
  1048.000    0.1041
  1049.000    0.0997
  1050.000    0.0957
  1051.000    0.0920
  1052.000    0.0886
  1053.000    0.0856
  1054.000    0.0827
  1055.000    0.0801
  1056.000    0.0777
  1057.000    0.0755
  1058.000    0.0735
  1059.000    0.0716
  1060.000    0.0698
  1061.000    0.0682
  1062.000    0.0666
  1063.000    0.0652
  1064.000    0.0639
  1065.000    0.0627
  1066.000    0.0615
  1067.000    0.0604
  1068.000    0.0595
  1069.000    0.0585
  1070.000    0.0577
  1071.000    0.0569
  1072.000    0.0561
  1073.000    0.0554
  1074.000    0.0548
  1075.000    0.0542
  1076.000    0.0537
  1077.000    0.0532
  1078.000    0.0527
  1079.000    0.0523
  1080.000    0.0520
  1081.000    0.0517
  1082.000    0.0514
  1083.000    0.0511
  1084.000    0.0509
  1085.000    0.0507
  1086.000    0.0506
  1087.000    0.0505
  1088.000    0.0504
  1089.000    0.0504
  1090.000    0.0504
  1091.000    0.0504
  1092.000    0.0505
  1093.000    0.0506
  1094.000    0.0507
  1095.000    0.0509
  1096.000    0.0511
  1097.000    0.0514
  1098.000    0.0517
  1099.000    0.0520
  1100.000    0.0524
  1101.000    0.0528
  1102.000    0.0533
  1103.000    0.0538
  1104.000    0.0543
  1105.000    0.0550
  1106.000    0.0556
  1107.000    0.0563
  1108.000    0.0571
  1109.000    0.0580
  1110.000    0.0589
  1111.000    0.0599
  1112.000    0.0609
  1113.000    0.0621
  1114.000    0.0633
  1115.000    0.0647
  1116.000    0.0661
  1117.000    0.0676
  1118.000    0.0693
  1119.000    0.0711
  1120.000    0.0730
  1121.000    0.0751
  1122.000    0.0774
  1123.000    0.0798
  1124.000    0.0825
  1125.000    0.0854
  1126.000    0.0885
  1127.000    0.0919
  1128.000    0.0957
  1129.000    0.0998
  1130.000    0.1043
  1131.000    0.1092
  1132.000    0.1147
  1133.000    0.1208
  1134.000    0.1276
  1135.000    0.1351
  1136.000    0.1436
  1137.000    0.1531
  1138.000    0.1640
  1139.000    0.1763
  1140.000    0.1904
  1141.000    0.2068
  1142.000    0.2258
  1143.000    0.2481
  1144.000    0.2744
  1145.000    0.3059
  1146.000    0.3437
  1147.000    0.3898
  1148.000    0.4465
  1149.000    0.5166
  1150.000    0.6040
  1151.000    0.7126
  1152.000    0.8461
  1153.000    1.0051
  1154.000    1.1838
  1155.000    1.3662
  1156.000    1.5289
  1157.000    1.6471
  1158.000    1.7002
  1159.000    1.6786
  1160.000    1.5952
  1161.000    1.4837
  1162.000    1.3789
  1163.000    1.2987
  1164.000    1.2415
  1165.000    1.1933
  1166.000    1.1389
  1167.000    1.0727
  1168.000    1.0009
  1169.000    0.9357
  1170.000    0.8885
  1171.000    0.8662
  1172.000    0.8722
  1173.000    0.9083
  1174.000    0.9750
  1175.000    1.0704
  1176.000    1.1863
  1177.000    1.3063
  1178.000    1.4074
  1179.000    1.4708
  1180.000    1.4913
  1181.000    1.4757
  1182.000    1.4363
  1183.000    1.3843
  1184.000    1.3270
  1185.000    1.2685
  1186.000    1.2129
  1187.000    1.1659
  1188.000    1.1346
  1189.000    1.1240
  1190.000    1.1350
  1191.000    1.1622
  1192.000    1.1955
  1193.000    1.2226
  1194.000    1.2328
  1195.000    1.2183
  1196.000    1.1752
  1197.000    1.1044
  1198.000    1.0125
  1199.000    0.9112
  1200.000    0.8137
  1201.000    0.7297
  1202.000    0.6639
  1203.000    0.6171
  1204.000    0.5885
  1205.000    0.5770
  1206.000    0.5822
  1207.000    0.6047
  1208.000    0.6461
  1209.000    0.7091
  1210.000    0.7974
  1211.000    0.9144
  1212.000    1.0606
  1213.000    1.2292
  1214.000    1.4000
  1215.000    1.5378
  1216.000    1.6027
  1217.000    1.5699
  1218.000    1.4466
  1219.000    1.2685
  1220.000    1.0773
  1221.000    0.9015
  1222.000    0.7525
  1223.000    0.6315
  1224.000    0.5349
  1225.000    0.4579
  1226.000    0.3964
  1227.000    0.3469
  1228.000    0.3067
  1229.000    0.2736
  1230.000    0.2462
  1231.000    0.2232
  1232.000    0.2039
  1233.000    0.1874
  1234.000    0.1732
  1235.000    0.1609
  1236.000    0.1503
  1237.000    0.1410
  1238.000    0.1328
  1239.000    0.1256
  1240.000    0.1192
  1241.000    0.1134
  1242.000    0.1083
  1243.000    0.1038
  1244.000    0.0997
  1245.000    0.0960
  1246.000    0.0927
  1247.000    0.0897
  1248.000    0.0870
  1249.000    0.0845
  1250.000    0.0823
  1251.000    0.0804
  1252.000    0.0786
  1253.000    0.0770
  1254.000    0.0756
  1255.000    0.0743
  1256.000    0.0732
  1257.000    0.0723
  1258.000    0.0715
  1259.000    0.0708
  1260.000    0.0702
  1261.000    0.0698
  1262.000    0.0695
  1263.000    0.0694
  1264.000    0.0693
  1265.000    0.0694
  1266.000    0.0696
  1267.000    0.0699
  1268.000    0.0704
  1269.000    0.0711
  1270.000    0.0718
  1271.000    0.0728
  1272.000    0.0739
  1273.000    0.0752
  1274.000    0.0767
  1275.000    0.0785
  1276.000    0.0804
  1277.000    0.0827
  1278.000    0.0853
  1279.000    0.0882
  1280.000    0.0916
  1281.000    0.0954
  1282.000    0.0998
  1283.000    0.1047
  1284.000    0.1105
  1285.000    0.1171
  1286.000    0.1247
  1287.000    0.1336
  1288.000    0.1441
  1289.000    0.1564
  1290.000    0.1711
  1291.000    0.1888
  1292.000    0.2102
  1293.000    0.2365
  1294.000    0.2689
  1295.000    0.3091
  1296.000    0.3591
  1297.000    0.4208
  1298.000    0.4950
  1299.000    0.5798
  1300.000    0.6675
  1301.000    0.7445
  1302.000    0.7974
  1303.000    0.8229
  1304.000    0.8315
  1305.000    0.8392
  1306.000    0.8556
  1307.000    0.8796
  1308.000    0.9023
  1309.000    0.9154
  1310.000    0.9161
  1311.000    0.9067
  1312.000    0.8903
  1313.000    0.8685
  1314.000    0.8396
  1315.000    0.7999
  1316.000    0.7467
  1317.000    0.6804
  1318.000    0.6060
  1319.000    0.5310
  1320.000    0.4620
  1321.000    0.4031
  1322.000    0.3549
  1323.000    0.3168
  1324.000    0.2873
  1325.000    0.2647
  1326.000    0.2479
  1327.000    0.2359
  1328.000    0.2281
  1329.000    0.2240
  1330.000    0.2234
  1331.000    0.2263
  1332.000    0.2329
  1333.000    0.2436
  1334.000    0.2590
  1335.000    0.2802
  1336.000    0.3084
  1337.000    0.3449
  1338.000    0.3914
  1339.000    0.4482
  1340.000    0.5135
  1341.000    0.5810
  1342.000    0.6397
  1343.000    0.6771
  1344.000    0.6862
  1345.000    0.6704
  1346.000    0.6417
  1347.000    0.6142
  1348.000    0.5979
  1349.000    0.5980
  1350.000    0.6142
  1351.000    0.6422
  1352.000    0.6744
  1353.000    0.7031
  1354.000    0.7236
  1355.000    0.7354
  1356.000    0.7407
  1357.000    0.7422
  1358.000    0.7418
  1359.000    0.7405
  1360.000    0.7378
  1361.000    0.7316
  1362.000    0.7185
  1363.000    0.6954
  1364.000    0.6604
  1365.000    0.6148
  1366.000    0.5624
  1367.000    0.5076
  1368.000    0.4544
  1369.000    0.4056
  1370.000    0.3631
  1371.000    0.3278
  1372.000    0.2995
  1373.000    0.2776
  1374.000    0.2612
  1375.000    0.2495
  1376.000    0.2417
  1377.000    0.2373
  1378.000    0.2359
  1379.000    0.2372
  1380.000    0.2413
  1381.000    0.2482
  1382.000    0.2579
  1383.000    0.2708
  1384.000    0.2874
  1385.000    0.3082
  1386.000    0.3341
  1387.000    0.3662
  1388.000    0.4061
  1389.000    0.4559
  1390.000    0.5183
  1391.000    0.5970
  1392.000    0.6962
  1393.000    0.8212
  1394.000    0.9760
  1395.000    1.1607
  1396.000    1.3646
  1397.000    1.5583
  1398.000    1.6938
  1399.000    1.7266
  1400.000    1.6498
  1401.000    1.5004
  1402.000    1.3296
  1403.000    1.1746
  1404.000    1.0527
  1405.000    0.9680
  1406.000    0.9192
  1407.000    0.9040
  1408.000    0.9206
  1409.000    0.9676
  1410.000    1.0428
  1411.000    1.1399
  1412.000    1.2472
  1413.000    1.3504
  1414.000    1.4426
  1415.000    1.5320
  1416.000    1.6344
  1417.000    1.7613
  1418.000    1.9146
  1419.000    2.0882
  1420.000    2.2644
  1421.000    2.4079
  1422.000    2.4701
  1423.000    2.4164
  1424.000    2.2534
  1425.000    2.0213
  1426.000    1.7641
  1427.000    1.5115
  1428.000    1.2803
  1429.000    1.0789
  1430.000    0.9099
  1431.000    0.7716
  1432.000    0.6598
  1433.000    0.5696
  1434.000    0.4966
  1435.000    0.4370
  1436.000    0.3881
  1437.000    0.3476
  1438.000    0.3136
  1439.000    0.2850
  1440.000    0.2607
  1441.000    0.2398
  1442.000    0.2219
  1443.000    0.2064
  1444.000    0.1928
  1445.000    0.1810
  1446.000    0.1707
  1447.000    0.1616
  1448.000    0.1536
  1449.000    0.1466
  1450.000    0.1404
  1451.000    0.1350
  1452.000    0.1303
  1453.000    0.1261
  1454.000    0.1226
  1455.000    0.1195
  1456.000    0.1170
  1457.000    0.1149
  1458.000    0.1132
  1459.000    0.1121
  1460.000    0.1113
  1461.000    0.1110
  1462.000    0.1111
  1463.000    0.1118
  1464.000    0.1129
  1465.000    0.1145
  1466.000    0.1167
  1467.000    0.1196
  1468.000    0.1232
  1469.000    0.1276
  1470.000    0.1329
  1471.000    0.1393
  1472.000    0.1469
  1473.000    0.1560
  1474.000    0.1669
  1475.000    0.1800
  1476.000    0.1957
  1477.000    0.2147
  1478.000    0.2378
  1479.000    0.2661
  1480.000    0.3010
  1481.000    0.3443
  1482.000    0.3986
  1483.000    0.4671
  1484.000    0.5536
  1485.000    0.6622
  1486.000    0.7962
  1487.000    0.9546
  1488.000    1.1278
  1489.000    1.2934
  1490.000    1.4197
  1491.000    1.4766
  1492.000    1.4484
  1493.000    1.3415
  1494.000    1.1825
  1495.000    1.0061
  1496.000    0.8394
  1497.000    0.6957
  1498.000    0.5780
  1499.000    0.4838
  1500.000    0.4090
  1501.000    0.3494
  1502.000    0.3017
  1503.000    0.2632
  1504.000    0.2318
  1505.000    0.2059
  1506.000    0.1844
  1507.000    0.1664
  1508.000    0.1511
  1509.000    0.1381
  1510.000    0.1270
  1511.000    0.1173
  1512.000    0.1089
  1513.000    0.1015
  1514.000    0.0951
  1515.000    0.0893
  1516.000    0.0843
  1517.000    0.0797
  1518.000    0.0757
  1519.000    0.0720
  1520.000    0.0688
  1521.000    0.0658
  1522.000    0.0631
  1523.000    0.0607
  1524.000    0.0585
  1525.000    0.0564
  1526.000    0.0546
  1527.000    0.0529
  1528.000    0.0514
  1529.000    0.0500
  1530.000    0.0487
  1531.000    0.0475
  1532.000    0.0464
  1533.000    0.0454
  1534.000    0.0445
  1535.000    0.0436
  1536.000    0.0429
  1537.000    0.0422
  1538.000    0.0415
  1539.000    0.0410
  1540.000    0.0405
  1541.000    0.0400
  1542.000    0.0396
  1543.000    0.0392
  1544.000    0.0389
  1545.000    0.0387
  1546.000    0.0384
  1547.000    0.0383
  1548.000    0.0381
  1549.000    0.0381
  1550.000    0.0380
  1551.000    0.0380
  1552.000    0.0380
  1553.000    0.0381
  1554.000    0.0382
  1555.000    0.0384
  1556.000    0.0386
  1557.000    0.0389
  1558.000    0.0392
  1559.000    0.0395
  1560.000    0.0399
  1561.000    0.0404
  1562.000    0.0409
  1563.000    0.0414
  1564.000    0.0421
  1565.000    0.0428
  1566.000    0.0435
  1567.000    0.0443
  1568.000    0.0452
  1569.000    0.0462
  1570.000    0.0473
  1571.000    0.0485
  1572.000    0.0498
  1573.000    0.0511
  1574.000    0.0527
  1575.000    0.0543
  1576.000    0.0561
  1577.000    0.0581
  1578.000    0.0602
  1579.000    0.0625
  1580.000    0.0651
  1581.000    0.0679
  1582.000    0.0710
  1583.000    0.0744
  1584.000    0.0781
  1585.000    0.0823
  1586.000    0.0869
  1587.000    0.0920
  1588.000    0.0977
  1589.000    0.1041
  1590.000    0.1113
  1591.000    0.1195
  1592.000    0.1288
  1593.000    0.1394
  1594.000    0.1516
  1595.000    0.1657
  1596.000    0.1822
  1597.000    0.2015
  1598.000    0.2244
  1599.000    0.2517
  1600.000    0.2846
  1601.000    0.3246
  1602.000    0.3738
  1603.000    0.4346
  1604.000    0.5104
  1605.000    0.6049
  1606.000    0.7216
  1607.000    0.8623
  1608.000    1.0241
  1609.000    1.1966
  1610.000    1.3611
  1611.000    1.4946
  1612.000    1.5756
  1613.000    1.5943
  1614.000    1.5574
  1615.000    1.4807
  1616.000    1.3766
  1617.000    1.2523
  1618.000    1.1181
  1619.000    0.9895
  1620.000    0.8801
  1621.000    0.7975
  1622.000    0.7436
  1623.000    0.7174
  1624.000    0.7170
  1625.000    0.7390
  1626.000    0.7776
  1627.000    0.8238
  1628.000    0.8682
  1629.000    0.9055
  1630.000    0.9362
  1631.000    0.9638
  1632.000    0.9919
  1633.000    1.0218
  1634.000    1.0475
  1635.000    1.0537
  1636.000    1.0241
  1637.000    0.9530
  1638.000    0.8502
  1639.000    0.7341
  1640.000    0.6218
  1641.000    0.5231
  1642.000    0.4409
  1643.000    0.3741
  1644.000    0.3204
  1645.000    0.2772
  1646.000    0.2421
  1647.000    0.2135
  1648.000    0.1898
  1649.000    0.1701
  1650.000    0.1534
  1651.000    0.1393
  1652.000    0.1272
  1653.000    0.1167
  1654.000    0.1076
  1655.000    0.0996
  1656.000    0.0926
  1657.000    0.0863
  1658.000    0.0807
  1659.000    0.0758
  1660.000    0.0713
  1661.000    0.0672
  1662.000    0.0635
  1663.000    0.0602
  1664.000    0.0571
  1665.000    0.0543
  1666.000    0.0518
  1667.000    0.0494
  1668.000    0.0472
  1669.000    0.0452
  1670.000    0.0433
  1671.000    0.0416
  1672.000    0.0400
  1673.000    0.0384
  1674.000    0.0370
  1675.000    0.0357
  1676.000    0.0344
  1677.000    0.0333
  1678.000    0.0322
  1679.000    0.0311
  1680.000    0.0301
  1681.000    0.0292
  1682.000    0.0283
  1683.000    0.0275
  1684.000    0.0267
  1685.000    0.0259
  1686.000    0.0252
  1687.000    0.0246
  1688.000    0.0239
  1689.000    0.0233
  1690.000    0.0227
  1691.000    0.0221
  1692.000    0.0216
  1693.000    0.0211
  1694.000    0.0206
  1695.000    0.0201
  1696.000    0.0197
  1697.000    0.0193
  1698.000    0.0188
  1699.000    0.0184
  1700.000    0.0181
  1701.000    0.0177
  1702.000    0.0173
  1703.000    0.0170
  1704.000    0.0167
  1705.000    0.0163
  1706.000    0.0160
  1707.000    0.0157
  1708.000    0.0154
  1709.000    0.0152
  1710.000    0.0149
  1711.000    0.0146
  1712.000    0.0144
  1713.000    0.0142
  1714.000    0.0139
  1715.000    0.0137
  1716.000    0.0135
  1717.000    0.0133
  1718.000    0.0131
  1719.000    0.0129
  1720.000    0.0127
  1721.000    0.0125
  1722.000    0.0123
  1723.000    0.0121
  1724.000    0.0119
  1725.000    0.0118
  1726.000    0.0116
  1727.000    0.0114
  1728.000    0.0113
  1729.000    0.0111
  1730.000    0.0110
  1731.000    0.0108
  1732.000    0.0107
  1733.000    0.0106
  1734.000    0.0104
  1735.000    0.0103
  1736.000    0.0102
  1737.000    0.0100
  1738.000    0.0099
  1739.000    0.0098
  1740.000    0.0097
  1741.000    0.0096
  1742.000    0.0095
  1743.000    0.0094
  1744.000    0.0093
  1745.000    0.0092
  1746.000    0.0091
  1747.000    0.0090
  1748.000    0.0089
  1749.000    0.0088
  1750.000    0.0087
  1751.000    0.0086
  1752.000    0.0085
  1753.000    0.0084
  1754.000    0.0083
  1755.000    0.0082
  1756.000    0.0082
  1757.000    0.0081
  1758.000    0.0080
  1759.000    0.0079
  1760.000    0.0078
  1761.000    0.0078
  1762.000    0.0077
  1763.000    0.0076
  1764.000    0.0076
  1765.000    0.0075
  1766.000    0.0074
  1767.000    0.0074
  1768.000    0.0073
  1769.000    0.0072
  1770.000    0.0072
  1771.000    0.0071
  1772.000    0.0070
  1773.000    0.0070
  1774.000    0.0069
  1775.000    0.0069
  1776.000    0.0068
  1777.000    0.0068
  1778.000    0.0067
  1779.000    0.0066
  1780.000    0.0066
  1781.000    0.0065
  1782.000    0.0065
  1783.000    0.0064
  1784.000    0.0064
  1785.000    0.0063
  1786.000    0.0063
  1787.000    0.0062
  1788.000    0.0062
  1789.000    0.0061
  1790.000    0.0061
  1791.000    0.0061
  1792.000    0.0060
  1793.000    0.0060
  1794.000    0.0059
  1795.000    0.0059
  1796.000    0.0058
  1797.000    0.0058
  1798.000    0.0058
  1799.000    0.0057
  1800.000    0.0057
  1801.000    0.0056
  1802.000    0.0056
  1803.000    0.0056
  1804.000    0.0055
  1805.000    0.0055
  1806.000    0.0055
  1807.000    0.0054
  1808.000    0.0054
  1809.000    0.0054
  1810.000    0.0053
  1811.000    0.0053
  1812.000    0.0053
  1813.000    0.0052
  1814.000    0.0052
  1815.000    0.0052
  1816.000    0.0051
  1817.000    0.0051
  1818.000    0.0051
  1819.000    0.0050
  1820.000    0.0050
  1821.000    0.0050
  1822.000    0.0049
  1823.000    0.0049
  1824.000    0.0049
  1825.000    0.0049
  1826.000    0.0048
  1827.000    0.0048
  1828.000    0.0048
  1829.000    0.0047
  1830.000    0.0047
  1831.000    0.0047
  1832.000    0.0047
  1833.000    0.0046
  1834.000    0.0046
  1835.000    0.0046
  1836.000    0.0046
  1837.000    0.0045
  1838.000    0.0045
  1839.000    0.0045
  1840.000    0.0045
  1841.000    0.0044
  1842.000    0.0044
  1843.000    0.0044
  1844.000    0.0044
  1845.000    0.0044
  1846.000    0.0043
  1847.000    0.0043
  1848.000    0.0043
  1849.000    0.0043
  1850.000    0.0042
  1851.000    0.0042
  1852.000    0.0042
  1853.000    0.0042
  1854.000    0.0042
  1855.000    0.0041
  1856.000    0.0041
  1857.000    0.0041
  1858.000    0.0041
  1859.000    0.0041
  1860.000    0.0040
  1861.000    0.0040
  1862.000    0.0040
  1863.000    0.0040
  1864.000    0.0040
  1865.000    0.0040
  1866.000    0.0039
  1867.000    0.0039
  1868.000    0.0039
  1869.000    0.0039
  1870.000    0.0039
  1871.000    0.0038
  1872.000    0.0038
  1873.000    0.0038
  1874.000    0.0038
  1875.000    0.0038
  1876.000    0.0038
  1877.000    0.0037
  1878.000    0.0037
  1879.000    0.0037
  1880.000    0.0037
  1881.000    0.0037
  1882.000    0.0037
  1883.000    0.0036
  1884.000    0.0036
  1885.000    0.0036
  1886.000    0.0036
  1887.000    0.0036
  1888.000    0.0036
  1889.000    0.0036
  1890.000    0.0035
  1891.000    0.0035
  1892.000    0.0035
  1893.000    0.0035
  1894.000    0.0035
  1895.000    0.0035
  1896.000    0.0035
  1897.000    0.0034
  1898.000    0.0034
  1899.000    0.0034
  1900.000    0.0034
  1901.000    0.0034
  1902.000    0.0034
  1903.000    0.0034
  1904.000    0.0034
  1905.000    0.0033
  1906.000    0.0033
  1907.000    0.0033
  1908.000    0.0033
  1909.000    0.0033
  1910.000    0.0033
  1911.000    0.0033
  1912.000    0.0033
  1913.000    0.0032
  1914.000    0.0032
  1915.000    0.0032
  1916.000    0.0032
  1917.000    0.0032
  1918.000    0.0032
  1919.000    0.0032
  1920.000    0.0032
  1921.000    0.0031
  1922.000    0.0031
  1923.000    0.0031
  1924.000    0.0031
  1925.000    0.0031
  1926.000    0.0031
  1927.000    0.0031
  1928.000    0.0031
  1929.000    0.0031
  1930.000    0.0030
  1931.000    0.0030
  1932.000    0.0030
  1933.000    0.0030
  1934.000    0.0030
  1935.000    0.0030
  1936.000    0.0030
  1937.000    0.0030
  1938.000    0.0030
  1939.000    0.0030
  1940.000    0.0029
  1941.000    0.0029
  1942.000    0.0029
  1943.000    0.0029
  1944.000    0.0029
  1945.000    0.0029
  1946.000    0.0029
  1947.000    0.0029
  1948.000    0.0029
  1949.000    0.0029
  1950.000    0.0029
  1951.000    0.0028
  1952.000    0.0028
  1953.000    0.0028
  1954.000    0.0028
  1955.000    0.0028
  1956.000    0.0028
  1957.000    0.0028
  1958.000    0.0028
  1959.000    0.0028
  1960.000    0.0028
  1961.000    0.0028
  1962.000    0.0027
  1963.000    0.0027
  1964.000    0.0027
  1965.000    0.0027
  1966.000    0.0027
  1967.000    0.0027
  1968.000    0.0027
  1969.000    0.0027
  1970.000    0.0027
  1971.000    0.0027
  1972.000    0.0027
  1973.000    0.0027
  1974.000    0.0026
  1975.000    0.0026
  1976.000    0.0026
  1977.000    0.0026
  1978.000    0.0026
  1979.000    0.0026
  1980.000    0.0026
  1981.000    0.0026
  1982.000    0.0026
  1983.000    0.0026
  1984.000    0.0026
  1985.000    0.0026
  1986.000    0.0026
  1987.000    0.0026
  1988.000    0.0025
  1989.000    0.0025
  1990.000    0.0025
  1991.000    0.0025
  1992.000    0.0025
  1993.000    0.0025
  1994.000    0.0025
  1995.000    0.0025
  1996.000    0.0025
  1997.000    0.0025
  1998.000    0.0025
  1999.000    0.0025
  2000.000    0.0025
  2001.000    0.0025
  2002.000    0.0025
  2003.000    0.0024
  2004.000    0.0024
  2005.000    0.0024
  2006.000    0.0024
  2007.000    0.0024
  2008.000    0.0024
  2009.000    0.0024
  2010.000    0.0024
  2011.000    0.0024
  2012.000    0.0024
  2013.000    0.0024
  2014.000    0.0024
  2015.000    0.0024
  2016.000    0.0024
  2017.000    0.0024
  2018.000    0.0024
  2019.000    0.0023
  2020.000    0.0023
  2021.000    0.0023
  2022.000    0.0023
  2023.000    0.0023
  2024.000    0.0023
  2025.000    0.0023
  2026.000    0.0023
  2027.000    0.0023
  2028.000    0.0023
  2029.000    0.0023
  2030.000    0.0023
  2031.000    0.0023
  2032.000    0.0023
  2033.000    0.0023
  2034.000    0.0023
  2035.000    0.0023
  2036.000    0.0022
  2037.000    0.0022
  2038.000    0.0022
  2039.000    0.0022
  2040.000    0.0022
  2041.000    0.0022
  2042.000    0.0022
  2043.000    0.0022
  2044.000    0.0022
  2045.000    0.0022
  2046.000    0.0022
  2047.000    0.0022
  2048.000    0.0022
  2049.000    0.0022
  2050.000    0.0022
  2051.000    0.0022
  2052.000    0.0022
  2053.000    0.0022
  2054.000    0.0022
  2055.000    0.0022
  2056.000    0.0021
  2057.000    0.0021
  2058.000    0.0021
  2059.000    0.0021
  2060.000    0.0021
  2061.000    0.0021
  2062.000    0.0021
  2063.000    0.0021
  2064.000    0.0021
  2065.000    0.0021
  2066.000    0.0021
  2067.000    0.0021
  2068.000    0.0021
  2069.000    0.0021
  2070.000    0.0021
  2071.000    0.0021
  2072.000    0.0021
  2073.000    0.0021
  2074.000    0.0021
  2075.000    0.0021
  2076.000    0.0021
  2077.000    0.0021
  2078.000    0.0021
  2079.000    0.0020
  2080.000    0.0020
  2081.000    0.0020
  2082.000    0.0020
  2083.000    0.0020
  2084.000    0.0020
  2085.000    0.0020
  2086.000    0.0020
  2087.000    0.0020
  2088.000    0.0020
  2089.000    0.0020
  2090.000    0.0020
  2091.000    0.0020
  2092.000    0.0020
  2093.000    0.0020
  2094.000    0.0020
  2095.000    0.0020
  2096.000    0.0020
  2097.000    0.0020
  2098.000    0.0020
  2099.000    0.0020
  2100.000    0.0020
  2101.000    0.0020
  2102.000    0.0020
  2103.000    0.0020
  2104.000    0.0019
  2105.000    0.0019
  2106.000    0.0019
  2107.000    0.0019
  2108.000    0.0019
  2109.000    0.0019
  2110.000    0.0019
  2111.000    0.0019
  2112.000    0.0019
  2113.000    0.0019
  2114.000    0.0019
  2115.000    0.0019
  2116.000    0.0019
  2117.000    0.0019
  2118.000    0.0019
  2119.000    0.0019
  2120.000    0.0019
  2121.000    0.0019
  2122.000    0.0019
  2123.000    0.0019
  2124.000    0.0019
  2125.000    0.0019
  2126.000    0.0019
  2127.000    0.0019
  2128.000    0.0019
  2129.000    0.0019
  2130.000    0.0019
  2131.000    0.0019
  2132.000    0.0019
  2133.000    0.0019
  2134.000    0.0018
  2135.000    0.0018
  2136.000    0.0018
  2137.000    0.0018
  2138.000    0.0018
  2139.000    0.0018
  2140.000    0.0018
  2141.000    0.0018
  2142.000    0.0018
  2143.000    0.0018
  2144.000    0.0018
  2145.000    0.0018
  2146.000    0.0018
  2147.000    0.0018
  2148.000    0.0018
  2149.000    0.0018
  2150.000    0.0018
  2151.000    0.0018
  2152.000    0.0018
  2153.000    0.0018
  2154.000    0.0018
  2155.000    0.0018
  2156.000    0.0018
  2157.000    0.0018
  2158.000    0.0018
  2159.000    0.0018
  2160.000    0.0018
  2161.000    0.0018
  2162.000    0.0018
  2163.000    0.0018
  2164.000    0.0018
  2165.000    0.0018
  2166.000    0.0018
  2167.000    0.0018
  2168.000    0.0018
  2169.000    0.0017
  2170.000    0.0017
  2171.000    0.0017
  2172.000    0.0017
  2173.000    0.0017
  2174.000    0.0017
  2175.000    0.0017
  2176.000    0.0017
  2177.000    0.0017
  2178.000    0.0017
  2179.000    0.0017
  2180.000    0.0017
  2181.000    0.0017
  2182.000    0.0017
  2183.000    0.0017
  2184.000    0.0017
  2185.000    0.0017
  2186.000    0.0017
  2187.000    0.0017
  2188.000    0.0017
  2189.000    0.0017
  2190.000    0.0017
  2191.000    0.0017
  2192.000    0.0017
  2193.000    0.0017
  2194.000    0.0017
  2195.000    0.0017
  2196.000    0.0017
  2197.000    0.0017
  2198.000    0.0017
  2199.000    0.0017
  2200.000    0.0017
  2201.000    0.0017
  2202.000    0.0017
  2203.000    0.0017
  2204.000    0.0017
  2205.000    0.0017
  2206.000    0.0017
  2207.000    0.0017
  2208.000    0.0017
  2209.000    0.0017
  2210.000    0.0017
  2211.000    0.0017
  2212.000    0.0017
  2213.000    0.0016
  2214.000    0.0016
  2215.000    0.0016
  2216.000    0.0016
  2217.000    0.0016
  2218.000    0.0016
  2219.000    0.0016
  2220.000    0.0016
  2221.000    0.0016
  2222.000    0.0016
  2223.000    0.0016
  2224.000    0.0016
  2225.000    0.0016
  2226.000    0.0016
  2227.000    0.0016
  2228.000    0.0016
  2229.000    0.0016
  2230.000    0.0016
  2231.000    0.0016
  2232.000    0.0016
  2233.000    0.0016
  2234.000    0.0016
  2235.000    0.0016
  2236.000    0.0016
  2237.000    0.0016
  2238.000    0.0016
  2239.000    0.0016
  2240.000    0.0016
  2241.000    0.0016
  2242.000    0.0016
  2243.000    0.0016
  2244.000    0.0016
  2245.000    0.0016
  2246.000    0.0016
  2247.000    0.0016
  2248.000    0.0016
  2249.000    0.0016
  2250.000    0.0016
  2251.000    0.0016
  2252.000    0.0016
  2253.000    0.0016
  2254.000    0.0016
  2255.000    0.0016
  2256.000    0.0016
  2257.000    0.0016
  2258.000    0.0016
  2259.000    0.0016
  2260.000    0.0016
  2261.000    0.0016
  2262.000    0.0016
  2263.000    0.0016
  2264.000    0.0016
  2265.000    0.0016
  2266.000    0.0016
  2267.000    0.0016
  2268.000    0.0016
  2269.000    0.0016
  2270.000    0.0016
  2271.000    0.0016
  2272.000    0.0016
  2273.000    0.0016
  2274.000    0.0016
  2275.000    0.0016
  2276.000    0.0016
  2277.000    0.0016
  2278.000    0.0015
  2279.000    0.0015
  2280.000    0.0015
  2281.000    0.0015
  2282.000    0.0015
  2283.000    0.0015
  2284.000    0.0015
  2285.000    0.0015
  2286.000    0.0015
  2287.000    0.0015
  2288.000    0.0015
  2289.000    0.0015
  2290.000    0.0015
  2291.000    0.0015
  2292.000    0.0015
  2293.000    0.0015
  2294.000    0.0015
  2295.000    0.0015
  2296.000    0.0015
  2297.000    0.0015
  2298.000    0.0015
  2299.000    0.0015
  2300.000    0.0015
  2301.000    0.0015
  2302.000    0.0015
  2303.000    0.0015
  2304.000    0.0015
  2305.000    0.0015
  2306.000    0.0015
  2307.000    0.0015
  2308.000    0.0015
  2309.000    0.0015
  2310.000    0.0015
  2311.000    0.0015
  2312.000    0.0015
  2313.000    0.0015
  2314.000    0.0015
  2315.000    0.0015
  2316.000    0.0015
  2317.000    0.0015
  2318.000    0.0015
  2319.000    0.0015
  2320.000    0.0015
  2321.000    0.0015
  2322.000    0.0015
  2323.000    0.0015
  2324.000    0.0015
  2325.000    0.0015
  2326.000    0.0015
  2327.000    0.0015
  2328.000    0.0015
  2329.000    0.0015
  2330.000    0.0015
  2331.000    0.0015
  2332.000    0.0015
  2333.000    0.0015
  2334.000    0.0015
  2335.000    0.0015
  2336.000    0.0015
  2337.000    0.0015
  2338.000    0.0015
  2339.000    0.0015
  2340.000    0.0015
  2341.000    0.0015
  2342.000    0.0015
  2343.000    0.0015
  2344.000    0.0015
  2345.000    0.0015
  2346.000    0.0015
  2347.000    0.0015
  2348.000    0.0015
  2349.000    0.0015
  2350.000    0.0015
  2351.000    0.0015
  2352.000    0.0015
  2353.000    0.0015
  2354.000    0.0015
  2355.000    0.0015
  2356.000    0.0015
  2357.000    0.0015
  2358.000    0.0015
  2359.000    0.0015
  2360.000    0.0015
  2361.000    0.0015
  2362.000    0.0015
  2363.000    0.0015
  2364.000    0.0015
  2365.000    0.0015
  2366.000    0.0015
  2367.000    0.0015
  2368.000    0.0015
  2369.000    0.0015
  2370.000    0.0015
  2371.000    0.0015
  2372.000    0.0015
  2373.000    0.0015
  2374.000    0.0015
  2375.000    0.0015
  2376.000    0.0015
  2377.000    0.0015
  2378.000    0.0015
  2379.000    0.0015
  2380.000    0.0015
  2381.000    0.0015
  2382.000    0.0015
  2383.000    0.0015
  2384.000    0.0015
  2385.000    0.0015
  2386.000    0.0015
  2387.000    0.0015
  2388.000    0.0015
  2389.000    0.0015
  2390.000    0.0015
  2391.000    0.0015
  2392.000    0.0015
  2393.000    0.0015
  2394.000    0.0015
  2395.000    0.0015
  2396.000    0.0015
  2397.000    0.0015
  2398.000    0.0015
  2399.000    0.0015
  2400.000    0.0015
  2401.000    0.0015
  2402.000    0.0015
  2403.000    0.0015
  2404.000    0.0015
  2405.000    0.0015
  2406.000    0.0015
  2407.000    0.0015
  2408.000    0.0015
  2409.000    0.0015
  2410.000    0.0015
  2411.000    0.0015
  2412.000    0.0015
  2413.000    0.0015
  2414.000    0.0015
  2415.000    0.0015
  2416.000    0.0015
  2417.000    0.0015
  2418.000    0.0015
  2419.000    0.0015
  2420.000    0.0015
  2421.000    0.0015
  2422.000    0.0015
  2423.000    0.0015
  2424.000    0.0015
  2425.000    0.0015
  2426.000    0.0015
  2427.000    0.0015
  2428.000    0.0015
  2429.000    0.0015
  2430.000    0.0015
  2431.000    0.0015
  2432.000    0.0015
  2433.000    0.0015
  2434.000    0.0015
  2435.000    0.0015
  2436.000    0.0015
  2437.000    0.0015
  2438.000    0.0015
  2439.000    0.0015
  2440.000    0.0015
  2441.000    0.0015
  2442.000    0.0015
  2443.000    0.0015
  2444.000    0.0015
  2445.000    0.0015
  2446.000    0.0015
  2447.000    0.0015
  2448.000    0.0015
  2449.000    0.0015
  2450.000    0.0015
  2451.000    0.0015
  2452.000    0.0015
  2453.000    0.0015
  2454.000    0.0015
  2455.000    0.0015
  2456.000    0.0015
  2457.000    0.0015
  2458.000    0.0015
  2459.000    0.0015
  2460.000    0.0015
  2461.000    0.0015
  2462.000    0.0015
  2463.000    0.0015
  2464.000    0.0015
  2465.000    0.0016
  2466.000    0.0016
  2467.000    0.0016
  2468.000    0.0016
  2469.000    0.0016
  2470.000    0.0016
  2471.000    0.0016
  2472.000    0.0016
  2473.000    0.0016
  2474.000    0.0016
  2475.000    0.0016
  2476.000    0.0016
  2477.000    0.0016
  2478.000    0.0016
  2479.000    0.0016
  2480.000    0.0016
  2481.000    0.0016
  2482.000    0.0016
  2483.000    0.0016
  2484.000    0.0016
  2485.000    0.0016
  2486.000    0.0016
  2487.000    0.0016
  2488.000    0.0016
  2489.000    0.0016
  2490.000    0.0016
  2491.000    0.0016
  2492.000    0.0016
  2493.000    0.0016
  2494.000    0.0016
  2495.000    0.0016
  2496.000    0.0016
  2497.000    0.0016
  2498.000    0.0016
  2499.000    0.0016
  2500.000    0.0016
  2501.000    0.0016
  2502.000    0.0016
  2503.000    0.0016
  2504.000    0.0016
  2505.000    0.0016
  2506.000    0.0016
  2507.000    0.0016
  2508.000    0.0016
  2509.000    0.0016
  2510.000    0.0016
  2511.000    0.0016
  2512.000    0.0016
  2513.000    0.0016
  2514.000    0.0016
  2515.000    0.0017
  2516.000    0.0017
  2517.000    0.0017
  2518.000    0.0017
  2519.000    0.0017
  2520.000    0.0017
  2521.000    0.0017
  2522.000    0.0017
  2523.000    0.0017
  2524.000    0.0017
  2525.000    0.0017
  2526.000    0.0017
  2527.000    0.0017
  2528.000    0.0017
  2529.000    0.0017
  2530.000    0.0017
  2531.000    0.0017
  2532.000    0.0017
  2533.000    0.0017
  2534.000    0.0017
  2535.000    0.0017
  2536.000    0.0017
  2537.000    0.0017
  2538.000    0.0017
  2539.000    0.0017
  2540.000    0.0017
  2541.000    0.0017
  2542.000    0.0017
  2543.000    0.0017
  2544.000    0.0017
  2545.000    0.0017
  2546.000    0.0017
  2547.000    0.0018
  2548.000    0.0018
  2549.000    0.0018
  2550.000    0.0018
  2551.000    0.0018
  2552.000    0.0018
  2553.000    0.0018
  2554.000    0.0018
  2555.000    0.0018
  2556.000    0.0018
  2557.000    0.0018
  2558.000    0.0018
  2559.000    0.0018
  2560.000    0.0018
  2561.000    0.0018
  2562.000    0.0018
  2563.000    0.0018
  2564.000    0.0018
  2565.000    0.0018
  2566.000    0.0018
  2567.000    0.0018
  2568.000    0.0018
  2569.000    0.0018
  2570.000    0.0018
  2571.000    0.0019
  2572.000    0.0019
  2573.000    0.0019
  2574.000    0.0019
  2575.000    0.0019
  2576.000    0.0019
  2577.000    0.0019
  2578.000    0.0019
  2579.000    0.0019
  2580.000    0.0019
  2581.000    0.0019
  2582.000    0.0019
  2583.000    0.0019
  2584.000    0.0019
  2585.000    0.0019
  2586.000    0.0019
  2587.000    0.0019
  2588.000    0.0019
  2589.000    0.0019
  2590.000    0.0020
  2591.000    0.0020
  2592.000    0.0020
  2593.000    0.0020
  2594.000    0.0020
  2595.000    0.0020
  2596.000    0.0020
  2597.000    0.0020
  2598.000    0.0020
  2599.000    0.0020
  2600.000    0.0020
  2601.000    0.0020
  2602.000    0.0020
  2603.000    0.0020
  2604.000    0.0020
  2605.000    0.0020
  2606.000    0.0021
  2607.000    0.0021
  2608.000    0.0021
  2609.000    0.0021
  2610.000    0.0021
  2611.000    0.0021
  2612.000    0.0021
  2613.000    0.0021
  2614.000    0.0021
  2615.000    0.0021
  2616.000    0.0021
  2617.000    0.0021
  2618.000    0.0021
  2619.000    0.0021
  2620.000    0.0022
  2621.000    0.0022
  2622.000    0.0022
  2623.000    0.0022
  2624.000    0.0022
  2625.000    0.0022
  2626.000    0.0022
  2627.000    0.0022
  2628.000    0.0022
  2629.000    0.0022
  2630.000    0.0022
  2631.000    0.0022
  2632.000    0.0023
  2633.000    0.0023
  2634.000    0.0023
  2635.000    0.0023
  2636.000    0.0023
  2637.000    0.0023
  2638.000    0.0023
  2639.000    0.0023
  2640.000    0.0023
  2641.000    0.0023
  2642.000    0.0023
  2643.000    0.0024
  2644.000    0.0024
  2645.000    0.0024
  2646.000    0.0024
  2647.000    0.0024
  2648.000    0.0024
  2649.000    0.0024
  2650.000    0.0024
  2651.000    0.0024
  2652.000    0.0025
  2653.000    0.0025
  2654.000    0.0025
  2655.000    0.0025
  2656.000    0.0025
  2657.000    0.0025
  2658.000    0.0025
  2659.000    0.0025
  2660.000    0.0025
  2661.000    0.0026
  2662.000    0.0026
  2663.000    0.0026
  2664.000    0.0026
  2665.000    0.0026
  2666.000    0.0026
  2667.000    0.0026
  2668.000    0.0026
  2669.000    0.0027
  2670.000    0.0027
  2671.000    0.0027
  2672.000    0.0027
  2673.000    0.0027
  2674.000    0.0027
  2675.000    0.0027
  2676.000    0.0028
  2677.000    0.0028
  2678.000    0.0028
  2679.000    0.0028
  2680.000    0.0028
  2681.000    0.0028
  2682.000    0.0028
  2683.000    0.0029
  2684.000    0.0029
  2685.000    0.0029
  2686.000    0.0029
  2687.000    0.0029
  2688.000    0.0029
  2689.000    0.0030
  2690.000    0.0030
  2691.000    0.0030
  2692.000    0.0030
  2693.000    0.0030
  2694.000    0.0030
  2695.000    0.0031
  2696.000    0.0031
  2697.000    0.0031
  2698.000    0.0031
  2699.000    0.0031
  2700.000    0.0032
  2701.000    0.0032
  2702.000    0.0032
  2703.000    0.0032
  2704.000    0.0032
  2705.000    0.0033
  2706.000    0.0033
  2707.000    0.0033
  2708.000    0.0033
  2709.000    0.0033
  2710.000    0.0034
  2711.000    0.0034
  2712.000    0.0034
  2713.000    0.0034
  2714.000    0.0035
  2715.000    0.0035
  2716.000    0.0035
  2717.000    0.0035
  2718.000    0.0036
  2719.000    0.0036
  2720.000    0.0036
  2721.000    0.0036
  2722.000    0.0037
  2723.000    0.0037
  2724.000    0.0037
  2725.000    0.0037
  2726.000    0.0038
  2727.000    0.0038
  2728.000    0.0038
  2729.000    0.0038
  2730.000    0.0039
  2731.000    0.0039
  2732.000    0.0039
  2733.000    0.0040
  2734.000    0.0040
  2735.000    0.0040
  2736.000    0.0041
  2737.000    0.0041
  2738.000    0.0041
  2739.000    0.0042
  2740.000    0.0042
  2741.000    0.0042
  2742.000    0.0043
  2743.000    0.0043
  2744.000    0.0043
  2745.000    0.0044
  2746.000    0.0044
  2747.000    0.0044
  2748.000    0.0045
  2749.000    0.0045
  2750.000    0.0045
  2751.000    0.0046
  2752.000    0.0046
  2753.000    0.0047
  2754.000    0.0047
  2755.000    0.0048
  2756.000    0.0048
  2757.000    0.0048
  2758.000    0.0049
  2759.000    0.0049
  2760.000    0.0050
  2761.000    0.0050
  2762.000    0.0051
  2763.000    0.0051
  2764.000    0.0052
  2765.000    0.0052
  2766.000    0.0053
  2767.000    0.0053
  2768.000    0.0054
  2769.000    0.0054
  2770.000    0.0055
  2771.000    0.0055
  2772.000    0.0056
  2773.000    0.0056
  2774.000    0.0057
  2775.000    0.0058
  2776.000    0.0058
  2777.000    0.0059
  2778.000    0.0059
  2779.000    0.0060
  2780.000    0.0061
  2781.000    0.0061
  2782.000    0.0062
  2783.000    0.0063
  2784.000    0.0063
  2785.000    0.0064
  2786.000    0.0065
  2787.000    0.0065
  2788.000    0.0066
  2789.000    0.0067
  2790.000    0.0068
  2791.000    0.0068
  2792.000    0.0069
  2793.000    0.0070
  2794.000    0.0071
  2795.000    0.0072
  2796.000    0.0073
  2797.000    0.0074
  2798.000    0.0074
  2799.000    0.0075
  2800.000    0.0076
  2801.000    0.0077
  2802.000    0.0078
  2803.000    0.0079
  2804.000    0.0080
  2805.000    0.0081
  2806.000    0.0082
  2807.000    0.0083
  2808.000    0.0085
  2809.000    0.0086
  2810.000    0.0087
  2811.000    0.0088
  2812.000    0.0089
  2813.000    0.0090
  2814.000    0.0092
  2815.000    0.0093
  2816.000    0.0094
  2817.000    0.0096
  2818.000    0.0097
  2819.000    0.0098
  2820.000    0.0100
  2821.000    0.0101
  2822.000    0.0103
  2823.000    0.0104
  2824.000    0.0106
  2825.000    0.0108
  2826.000    0.0109
  2827.000    0.0111
  2828.000    0.0113
  2829.000    0.0115
  2830.000    0.0117
  2831.000    0.0118
  2832.000    0.0120
  2833.000    0.0122
  2834.000    0.0124
  2835.000    0.0127
  2836.000    0.0129
  2837.000    0.0131
  2838.000    0.0133
  2839.000    0.0136
  2840.000    0.0138
  2841.000    0.0141
  2842.000    0.0143
  2843.000    0.0146
  2844.000    0.0148
  2845.000    0.0151
  2846.000    0.0154
  2847.000    0.0157
  2848.000    0.0160
  2849.000    0.0163
  2850.000    0.0166
  2851.000    0.0170
  2852.000    0.0173
  2853.000    0.0177
  2854.000    0.0180
  2855.000    0.0184
  2856.000    0.0188
  2857.000    0.0192
  2858.000    0.0196
  2859.000    0.0201
  2860.000    0.0205
  2861.000    0.0210
  2862.000    0.0215
  2863.000    0.0220
  2864.000    0.0225
  2865.000    0.0230
  2866.000    0.0236
  2867.000    0.0241
  2868.000    0.0247
  2869.000    0.0253
  2870.000    0.0260
  2871.000    0.0267
  2872.000    0.0273
  2873.000    0.0281
  2874.000    0.0288
  2875.000    0.0296
  2876.000    0.0304
  2877.000    0.0313
  2878.000    0.0322
  2879.000    0.0331
  2880.000    0.0340
  2881.000    0.0351
  2882.000    0.0361
  2883.000    0.0372
  2884.000    0.0384
  2885.000    0.0396
  2886.000    0.0409
  2887.000    0.0422
  2888.000    0.0436
  2889.000    0.0451
  2890.000    0.0466
  2891.000    0.0483
  2892.000    0.0500
  2893.000    0.0518
  2894.000    0.0537
  2895.000    0.0558
  2896.000    0.0579
  2897.000    0.0602
  2898.000    0.0626
  2899.000    0.0652
  2900.000    0.0679
  2901.000    0.0708
  2902.000    0.0739
  2903.000    0.0772
  2904.000    0.0808
  2905.000    0.0845
  2906.000    0.0886
  2907.000    0.0929
  2908.000    0.0976
  2909.000    0.1027
  2910.000    0.1081
  2911.000    0.1140
  2912.000    0.1204
  2913.000    0.1273
  2914.000    0.1349
  2915.000    0.1431
  2916.000    0.1521
  2917.000    0.1620
  2918.000    0.1729
  2919.000    0.1849
  2920.000    0.1982
  2921.000    0.2129
  2922.000    0.2294
  2923.000    0.2478
  2924.000    0.2685
  2925.000    0.2919
  2926.000    0.3184
  2927.000    0.3486
  2928.000    0.3832
  2929.000    0.4232
  2930.000    0.4695
  2931.000    0.5237
  2932.000    0.5874
  2933.000    0.6631
  2934.000    0.7536
  2935.000    0.8629
  2936.000    0.9961
  2937.000    1.1601
  2938.000    1.3638
  2939.000    1.6192
  2940.000    1.9414
  2941.000    2.3486
  2942.000    2.8597
  2943.000    3.4862
  2944.000    4.2152
  2945.000    4.9800
  2946.000    5.6376
  2947.000    5.9991
  2948.000    5.9356
  2949.000    5.4745
  2950.000    4.7743
  2951.000    4.0135
  2952.000    3.3112
  2953.000    2.7165
  2954.000    2.2346
  2955.000    1.8513
  2956.000    1.5480
  2957.000    1.3071
  2958.000    1.1145
  2959.000    0.9592
  2960.000    0.8327
  2961.000    0.7286
  2962.000    0.6423
  2963.000    0.5699
  2964.000    0.5088
  2965.000    0.4569
  2966.000    0.4123
  2967.000    0.3738
  2968.000    0.3404
  2969.000    0.3112
  2970.000    0.2855
  2971.000    0.2629
  2972.000    0.2428
  2973.000    0.2249
  2974.000    0.2089
  2975.000    0.1946
  2976.000    0.1816
  2977.000    0.1699
  2978.000    0.1593
  2979.000    0.1497
  2980.000    0.1409
  2981.000    0.1328
  2982.000    0.1254
  2983.000    0.1186
  2984.000    0.1124
  2985.000    0.1066
  2986.000    0.1013
  2987.000    0.0963
  2988.000    0.0917
  2989.000    0.0875
  2990.000    0.0835
  2991.000    0.0798
  2992.000    0.0763
  2993.000    0.0731
  2994.000    0.0700
  2995.000    0.0672
  2996.000    0.0645
  2997.000    0.0619
  2998.000    0.0596
  2999.000    0.0573
  3000.000    0.0552
  3001.000    0.0532
  3002.000    0.0513
  3003.000    0.0495
  3004.000    0.0478
  3005.000    0.0462
  3006.000    0.0446
  3007.000    0.0432
  3008.000    0.0418
  3009.000    0.0405
  3010.000    0.0392
  3011.000    0.0380
  3012.000    0.0369
  3013.000    0.0358
  3014.000    0.0347
  3015.000    0.0337
  3016.000    0.0328
  3017.000    0.0319
  3018.000    0.0310
  3019.000    0.0301
  3020.000    0.0293
  3021.000    0.0286
  3022.000    0.0278
  3023.000    0.0271
  3024.000    0.0264
  3025.000    0.0258
  3026.000    0.0251
  3027.000    0.0245
  3028.000    0.0239
  3029.000    0.0233
  3030.000    0.0228
  3031.000    0.0223
  3032.000    0.0218
  3033.000    0.0213
  3034.000    0.0208
  3035.000    0.0203
  3036.000    0.0199
  3037.000    0.0195
  3038.000    0.0190
  3039.000    0.0186
  3040.000    0.0183
  3041.000    0.0179
  3042.000    0.0175
  3043.000    0.0172
  3044.000    0.0168
  3045.000    0.0165
  3046.000    0.0162
  3047.000    0.0159
  3048.000    0.0155
  3049.000    0.0153
  3050.000    0.0150
  3051.000    0.0147
  3052.000    0.0144
  3053.000    0.0142
  3054.000    0.0139
  3055.000    0.0137
  3056.000    0.0134
  3057.000    0.0132
  3058.000    0.0130
  3059.000    0.0127
  3060.000    0.0125
  3061.000    0.0123
  3062.000    0.0121
  3063.000    0.0119
  3064.000    0.0117
  3065.000    0.0115
  3066.000    0.0113
  3067.000    0.0112
  3068.000    0.0110
  3069.000    0.0108
  3070.000    0.0106
  3071.000    0.0105
  3072.000    0.0103
  3073.000    0.0102
  3074.000    0.0100
  3075.000    0.0099
  3076.000    0.0097
  3077.000    0.0096
  3078.000    0.0094
  3079.000    0.0093
  3080.000    0.0092
  3081.000    0.0090
  3082.000    0.0089
  3083.000    0.0088
  3084.000    0.0087
  3085.000    0.0085
  3086.000    0.0084
  3087.000    0.0083
  3088.000    0.0082
  3089.000    0.0081
  3090.000    0.0080
  3091.000    0.0079
  3092.000    0.0078
  3093.000    0.0077
  3094.000    0.0076
  3095.000    0.0075
  3096.000    0.0074
  3097.000    0.0073
  3098.000    0.0072
  3099.000    0.0071
  3100.000    0.0070
  3101.000    0.0070
  3102.000    0.0069
  3103.000    0.0068
  3104.000    0.0067
  3105.000    0.0066
  3106.000    0.0066
  3107.000    0.0065
  3108.000    0.0064
  3109.000    0.0063
  3110.000    0.0063
  3111.000    0.0062
  3112.000    0.0061
  3113.000    0.0060
  3114.000    0.0060
  3115.000    0.0059
  3116.000    0.0059
  3117.000    0.0058
  3118.000    0.0057
  3119.000    0.0057
  3120.000    0.0056
  3121.000    0.0055
  3122.000    0.0055
  3123.000    0.0054
  3124.000    0.0054
  3125.000    0.0053
  3126.000    0.0053
  3127.000    0.0052
  3128.000    0.0052
  3129.000    0.0051
  3130.000    0.0051
  3131.000    0.0050
  3132.000    0.0050
  3133.000    0.0049
  3134.000    0.0049
  3135.000    0.0048
  3136.000    0.0048
  3137.000    0.0047
  3138.000    0.0047
  3139.000    0.0046
  3140.000    0.0046
  3141.000    0.0046
  3142.000    0.0045
  3143.000    0.0045
  3144.000    0.0044
  3145.000    0.0044
  3146.000    0.0044
  3147.000    0.0043
  3148.000    0.0043
  3149.000    0.0042
  3150.000    0.0042
  3151.000    0.0042
  3152.000    0.0041
  3153.000    0.0041
  3154.000    0.0041
  3155.000    0.0040
  3156.000    0.0040
  3157.000    0.0040
  3158.000    0.0039
  3159.000    0.0039
  3160.000    0.0039
  3161.000    0.0038
  3162.000    0.0038
  3163.000    0.0038
  3164.000    0.0037
  3165.000    0.0037
  3166.000    0.0037
  3167.000    0.0036
  3168.000    0.0036
  3169.000    0.0036
  3170.000    0.0036
  3171.000    0.0035
  3172.000    0.0035
  3173.000    0.0035
  3174.000    0.0035
  3175.000    0.0034
  3176.000    0.0034
  3177.000    0.0034
  3178.000    0.0034
  3179.000    0.0033
  3180.000    0.0033
  3181.000    0.0033
  3182.000    0.0033
  3183.000    0.0032
  3184.000    0.0032
  3185.000    0.0032
  3186.000    0.0032
  3187.000    0.0031
  3188.000    0.0031
  3189.000    0.0031
  3190.000    0.0031
  3191.000    0.0031
  3192.000    0.0030
  3193.000    0.0030
  3194.000    0.0030
  3195.000    0.0030
  3196.000    0.0030
  3197.000    0.0029
  3198.000    0.0029
  3199.000    0.0029
  3200.000    0.0029
  3201.000    0.0029
  3202.000    0.0028
  3203.000    0.0028
  3204.000    0.0028
  3205.000    0.0028
  3206.000    0.0028
  3207.000    0.0027
  3208.000    0.0027
  3209.000    0.0027
  3210.000    0.0027
  3211.000    0.0027
  3212.000    0.0027
  3213.000    0.0026
  3214.000    0.0026
  3215.000    0.0026
  3216.000    0.0026
  3217.000    0.0026
  3218.000    0.0026
  3219.000    0.0026
  3220.000    0.0025
  3221.000    0.0025
  3222.000    0.0025
  3223.000    0.0025
  3224.000    0.0025
  3225.000    0.0025
  3226.000    0.0025
  3227.000    0.0024
  3228.000    0.0024
  3229.000    0.0024
  3230.000    0.0024
  3231.000    0.0024
  3232.000    0.0024
  3233.000    0.0024
  3234.000    0.0023
  3235.000    0.0023
  3236.000    0.0023
  3237.000    0.0023
  3238.000    0.0023
  3239.000    0.0023
  3240.000    0.0023
  3241.000    0.0023
  3242.000    0.0022
  3243.000    0.0022
  3244.000    0.0022
  3245.000    0.0022
  3246.000    0.0022
  3247.000    0.0022
  3248.000    0.0022
  3249.000    0.0022
  3250.000    0.0022
  3251.000    0.0021
  3252.000    0.0021
  3253.000    0.0021
  3254.000    0.0021
  3255.000    0.0021
  3256.000    0.0021
  3257.000    0.0021
  3258.000    0.0021
  3259.000    0.0021
  3260.000    0.0021
  3261.000    0.0020
  3262.000    0.0020
  3263.000    0.0020
  3264.000    0.0020
  3265.000    0.0020
  3266.000    0.0020
  3267.000    0.0020
  3268.000    0.0020
  3269.000    0.0020
  3270.000    0.0020
  3271.000    0.0020
  3272.000    0.0019
  3273.000    0.0019
  3274.000    0.0019
  3275.000    0.0019
  3276.000    0.0019
  3277.000    0.0019
  3278.000    0.0019
  3279.000    0.0019
  3280.000    0.0019
  3281.000    0.0019
  3282.000    0.0019
  3283.000    0.0019
  3284.000    0.0018
  3285.000    0.0018
  3286.000    0.0018
  3287.000    0.0018
  3288.000    0.0018
  3289.000    0.0018
  3290.000    0.0018
  3291.000    0.0018
  3292.000    0.0018
  3293.000    0.0018
  3294.000    0.0018
  3295.000    0.0018
  3296.000    0.0018
  3297.000    0.0018
  3298.000    0.0017
  3299.000    0.0017
  3300.000    0.0017
  3301.000    0.0017
  3302.000    0.0017
  3303.000    0.0017
  3304.000    0.0017
  3305.000    0.0017
  3306.000    0.0017
  3307.000    0.0017
  3308.000    0.0017
  3309.000    0.0017
  3310.000    0.0017
  3311.000    0.0017
  3312.000    0.0017
  3313.000    0.0017
  3314.000    0.0017
  3315.000    0.0016
  3316.000    0.0016
  3317.000    0.0016
  3318.000    0.0016
  3319.000    0.0016
  3320.000    0.0016
  3321.000    0.0016
  3322.000    0.0016
  3323.000    0.0016
  3324.000    0.0016
  3325.000    0.0016
  3326.000    0.0016
  3327.000    0.0016
  3328.000    0.0016
  3329.000    0.0016
  3330.000    0.0016
  3331.000    0.0016
  3332.000    0.0016
  3333.000    0.0016
  3334.000    0.0015
  3335.000    0.0015
  3336.000    0.0015
  3337.000    0.0015
  3338.000    0.0015
  3339.000    0.0015
  3340.000    0.0015
  3341.000    0.0015
  3342.000    0.0015
  3343.000    0.0015
  3344.000    0.0015
  3345.000    0.0015
  3346.000    0.0015
  3347.000    0.0015
  3348.000    0.0015
  3349.000    0.0015
  3350.000    0.0015
  3351.000    0.0015
  3352.000    0.0015
  3353.000    0.0015
  3354.000    0.0015
  3355.000    0.0015
  3356.000    0.0015
  3357.000    0.0015
  3358.000    0.0015
  3359.000    0.0015
  3360.000    0.0014
  3361.000    0.0014
  3362.000    0.0014
  3363.000    0.0014
  3364.000    0.0014
  3365.000    0.0014
  3366.000    0.0014
  3367.000    0.0014
  3368.000    0.0014
  3369.000    0.0014
  3370.000    0.0014
  3371.000    0.0014
  3372.000    0.0014
  3373.000    0.0014
  3374.000    0.0014
  3375.000    0.0014
  3376.000    0.0014
  3377.000    0.0014
  3378.000    0.0014
  3379.000    0.0014
  3380.000    0.0014
  3381.000    0.0014
  3382.000    0.0014
  3383.000    0.0014
  3384.000    0.0014
  3385.000    0.0014
  3386.000    0.0014
  3387.000    0.0014
  3388.000    0.0014
  3389.000    0.0014
  3390.000    0.0014
  3391.000    0.0014
  3392.000    0.0014
  3393.000    0.0014
  3394.000    0.0014
  3395.000    0.0014
  3396.000    0.0014
  3397.000    0.0014
  3398.000    0.0014
  3399.000    0.0013
  3400.000    0.0013
  3401.000    0.0013
  3402.000    0.0013
  3403.000    0.0013
  3404.000    0.0013
  3405.000    0.0013
  3406.000    0.0013
  3407.000    0.0013
  3408.000    0.0013
  3409.000    0.0013
  3410.000    0.0013
  3411.000    0.0013
  3412.000    0.0013
  3413.000    0.0013
  3414.000    0.0013
  3415.000    0.0013
  3416.000    0.0013
  3417.000    0.0013
  3418.000    0.0013
  3419.000    0.0013
  3420.000    0.0013
  3421.000    0.0013
  3422.000    0.0013
  3423.000    0.0013
  3424.000    0.0013
  3425.000    0.0013
  3426.000    0.0013
  3427.000    0.0013
  3428.000    0.0013
  3429.000    0.0013
  3430.000    0.0013
  3431.000    0.0013
  3432.000    0.0013
  3433.000    0.0013
  3434.000    0.0013
  3435.000    0.0013
  3436.000    0.0013
  3437.000    0.0013
  3438.000    0.0013
  3439.000    0.0013
  3440.000    0.0013
  3441.000    0.0013
  3442.000    0.0013
  3443.000    0.0013
  3444.000    0.0013
  3445.000    0.0013
  3446.000    0.0013
  3447.000    0.0013
  3448.000    0.0013
  3449.000    0.0013
  3450.000    0.0013
  3451.000    0.0013
  3452.000    0.0013
  3453.000    0.0013
  3454.000    0.0013
  3455.000    0.0013
  3456.000    0.0013
  3457.000    0.0013
  3458.000    0.0013
  3459.000    0.0013
  3460.000    0.0013
  3461.000    0.0013
  3462.000    0.0013
  3463.000    0.0013
  3464.000    0.0013
  3465.000    0.0013
  3466.000    0.0013
  3467.000    0.0013
  3468.000    0.0013
  3469.000    0.0013
  3470.000    0.0013
  3471.000    0.0013
  3472.000    0.0013
  3473.000    0.0013
  3474.000    0.0014
  3475.000    0.0014
  3476.000    0.0014
  3477.000    0.0014
  3478.000    0.0014
  3479.000    0.0014
  3480.000    0.0014
  3481.000    0.0014
  3482.000    0.0014
  3483.000    0.0014
  3484.000    0.0014
  3485.000    0.0014
  3486.000    0.0014
  3487.000    0.0014
  3488.000    0.0014
  3489.000    0.0014
  3490.000    0.0014
  3491.000    0.0014
  3492.000    0.0014
  3493.000    0.0014
  3494.000    0.0014
  3495.000    0.0014
  3496.000    0.0014
  3497.000    0.0014
  3498.000    0.0014
  3499.000    0.0014
  3500.000    0.0014
  3501.000    0.0014
  3502.000    0.0014
  3503.000    0.0014
  3504.000    0.0014
  3505.000    0.0015
  3506.000    0.0015
  3507.000    0.0015
  3508.000    0.0015
  3509.000    0.0015
  3510.000    0.0015
  3511.000    0.0015
  3512.000    0.0015
  3513.000    0.0015
  3514.000    0.0015
  3515.000    0.0015
  3516.000    0.0015
  3517.000    0.0015
  3518.000    0.0015
  3519.000    0.0015
  3520.000    0.0015
  3521.000    0.0015
  3522.000    0.0016
  3523.000    0.0016
  3524.000    0.0016
  3525.000    0.0016
  3526.000    0.0016
  3527.000    0.0016
  3528.000    0.0016
  3529.000    0.0016
  3530.000    0.0016
  3531.000    0.0016
  3532.000    0.0016
  3533.000    0.0016
  3534.000    0.0017
  3535.000    0.0017
  3536.000    0.0017
  3537.000    0.0017
  3538.000    0.0017
  3539.000    0.0017
  3540.000    0.0017
  3541.000    0.0017
  3542.000    0.0017
  3543.000    0.0017
  3544.000    0.0018
  3545.000    0.0018
  3546.000    0.0018
  3547.000    0.0018
  3548.000    0.0018
  3549.000    0.0018
  3550.000    0.0018
  3551.000    0.0018
  3552.000    0.0019
  3553.000    0.0019
  3554.000    0.0019
  3555.000    0.0019
  3556.000    0.0019
  3557.000    0.0019
  3558.000    0.0020
  3559.000    0.0020
  3560.000    0.0020
  3561.000    0.0020
  3562.000    0.0020
  3563.000    0.0020
  3564.000    0.0021
  3565.000    0.0021
  3566.000    0.0021
  3567.000    0.0021
  3568.000    0.0021
  3569.000    0.0022
  3570.000    0.0022
  3571.000    0.0022
  3572.000    0.0022
  3573.000    0.0022
  3574.000    0.0023
  3575.000    0.0023
  3576.000    0.0023
  3577.000    0.0023
  3578.000    0.0024
  3579.000    0.0024
  3580.000    0.0024
  3581.000    0.0025
  3582.000    0.0025
  3583.000    0.0025
  3584.000    0.0025
  3585.000    0.0026
  3586.000    0.0026
  3587.000    0.0026
  3588.000    0.0027
  3589.000    0.0027
  3590.000    0.0027
  3591.000    0.0028
  3592.000    0.0028
  3593.000    0.0029
  3594.000    0.0029
  3595.000    0.0029
  3596.000    0.0030
  3597.000    0.0030
  3598.000    0.0031
  3599.000    0.0031
  3600.000    0.0032
  3601.000    0.0032
  3602.000    0.0033
  3603.000    0.0033
  3604.000    0.0034
  3605.000    0.0034
  3606.000    0.0035
  3607.000    0.0036
  3608.000    0.0036
  3609.000    0.0037
  3610.000    0.0038
  3611.000    0.0038
  3612.000    0.0039
  3613.000    0.0040
  3614.000    0.0040
  3615.000    0.0041
  3616.000    0.0042
  3617.000    0.0043
  3618.000    0.0044
  3619.000    0.0045
  3620.000    0.0046
  3621.000    0.0047
  3622.000    0.0048
  3623.000    0.0049
  3624.000    0.0050
  3625.000    0.0051
  3626.000    0.0052
  3627.000    0.0054
  3628.000    0.0055
  3629.000    0.0056
  3630.000    0.0058
  3631.000    0.0059
  3632.000    0.0061
  3633.000    0.0062
  3634.000    0.0064
  3635.000    0.0066
  3636.000    0.0068
  3637.000    0.0070
  3638.000    0.0072
  3639.000    0.0074
  3640.000    0.0076
  3641.000    0.0079
  3642.000    0.0081
  3643.000    0.0084
  3644.000    0.0086
  3645.000    0.0089
  3646.000    0.0092
  3647.000    0.0096
  3648.000    0.0099
  3649.000    0.0103
  3650.000    0.0107
  3651.000    0.0111
  3652.000    0.0115
  3653.000    0.0120
  3654.000    0.0125
  3655.000    0.0130
  3656.000    0.0136
  3657.000    0.0142
  3658.000    0.0148
  3659.000    0.0155
  3660.000    0.0163
  3661.000    0.0171
  3662.000    0.0179
  3663.000    0.0189
  3664.000    0.0199
  3665.000    0.0210
  3666.000    0.0222
  3667.000    0.0235
  3668.000    0.0249
  3669.000    0.0265
  3670.000    0.0282
  3671.000    0.0300
  3672.000    0.0321
  3673.000    0.0344
  3674.000    0.0370
  3675.000    0.0399
  3676.000    0.0431
  3677.000    0.0467
  3678.000    0.0508
  3679.000    0.0555
  3680.000    0.0608
  3681.000    0.0669
  3682.000    0.0740
  3683.000    0.0822
  3684.000    0.0919
  3685.000    0.1032
  3686.000    0.1168
  3687.000    0.1331
  3688.000    0.1529
  3689.000    0.1771
  3690.000    0.2070
  3691.000    0.2443
  3692.000    0.2912
  3693.000    0.3504
  3694.000    0.4251
  3695.000    0.5178
  3696.000    0.6291
  3697.000    0.7531
  3698.000    0.8735
  3699.000    0.9629
  3700.000    0.9942
  3701.000    0.9573
  3702.000    0.8658
  3703.000    0.7465
  3704.000    0.6243
  3705.000    0.5146
  3706.000    0.4228
  3707.000    0.3487
  3708.000    0.2899
  3709.000    0.2433
  3710.000    0.2062
  3711.000    0.1764
  3712.000    0.1523
  3713.000    0.1326
  3714.000    0.1164
  3715.000    0.1029
  3716.000    0.0915
  3717.000    0.0819
  3718.000    0.0737
  3719.000    0.0667
  3720.000    0.0606
  3721.000    0.0553
  3722.000    0.0506
  3723.000    0.0466
  3724.000    0.0430
  3725.000    0.0397
  3726.000    0.0369
  3727.000    0.0343
  3728.000    0.0320
  3729.000    0.0299
  3730.000    0.0281
  3731.000    0.0263
  3732.000    0.0248
  3733.000    0.0234
  3734.000    0.0221
  3735.000    0.0209
  3736.000    0.0198
  3737.000    0.0188
  3738.000    0.0178
  3739.000    0.0170
  3740.000    0.0162
  3741.000    0.0154
  3742.000    0.0147
  3743.000    0.0141
  3744.000    0.0135
  3745.000    0.0129
  3746.000    0.0124
  3747.000    0.0119
  3748.000    0.0114
  3749.000    0.0110
  3750.000    0.0106
  3751.000    0.0102
  3752.000    0.0098
  3753.000    0.0095
  3754.000    0.0091
  3755.000    0.0088
  3756.000    0.0085
  3757.000    0.0083
  3758.000    0.0080
  3759.000    0.0077
  3760.000    0.0075
  3761.000    0.0073
  3762.000    0.0071
  3763.000    0.0068
  3764.000    0.0067
  3765.000    0.0065
  3766.000    0.0063
  3767.000    0.0061
  3768.000    0.0059
  3769.000    0.0058
  3770.000    0.0056
  3771.000    0.0055
  3772.000    0.0054
  3773.000    0.0052
  3774.000    0.0051
  3775.000    0.0050
  3776.000    0.0049
  3777.000    0.0047
  3778.000    0.0046
  3779.000    0.0045
  3780.000    0.0044
  3781.000    0.0043
  3782.000    0.0042
  3783.000    0.0041
  3784.000    0.0041
  3785.000    0.0040
  3786.000    0.0039
  3787.000    0.0038
  3788.000    0.0037
  3789.000    0.0037
  3790.000    0.0036
  3791.000    0.0035
  3792.000    0.0035
  3793.000    0.0034
  3794.000    0.0033
  3795.000    0.0033
  3796.000    0.0032
  3797.000    0.0031
  3798.000    0.0031
  3799.000    0.0030
  3800.000    0.0030
  3801.000    0.0029
  3802.000    0.0029
  3803.000    0.0028
  3804.000    0.0028
  3805.000    0.0027
  3806.000    0.0027
  3807.000    0.0027
  3808.000    0.0026
  3809.000    0.0026
  3810.000    0.0025
