# v / cm^-1  DOS / states (q-point cm^-1)^-1
  -120.000    0.0064
  -119.000    0.0065
  -118.000    0.0065
  -117.000    0.0066
  -116.000    0.0066
  -115.000    0.0067
  -114.000    0.0068
  -113.000    0.0068
  -112.000    0.0069
  -111.000    0.0070
  -110.000    0.0070
  -109.000    0.0071
  -108.000    0.0072
  -107.000    0.0073
  -106.000    0.0073
  -105.000    0.0074
  -104.000    0.0075
  -103.000    0.0076
  -102.000    0.0076
  -101.000    0.0077
  -100.000    0.0078
   -99.000    0.0079
   -98.000    0.0080
   -97.000    0.0081
   -96.000    0.0082
   -95.000    0.0082
   -94.000    0.0083
   -93.000    0.0084
   -92.000    0.0085
   -91.000    0.0086
   -90.000    0.0087
   -89.000    0.0088
   -88.000    0.0089
   -87.000    0.0091
   -86.000    0.0092
   -85.000    0.0093
   -84.000    0.0094
   -83.000    0.0095
   -82.000    0.0096
   -81.000    0.0098
   -80.000    0.0099
   -79.000    0.0100
   -78.000    0.0101
   -77.000    0.0103
   -76.000    0.0104
   -75.000    0.0106
   -74.000    0.0107
   -73.000    0.0109
   -72.000    0.0110
   -71.000    0.0112
   -70.000    0.0113
   -69.000    0.0115
   -68.000    0.0117
   -67.000    0.0119
   -66.000    0.0120
   -65.000    0.0122
   -64.000    0.0124
   -63.000    0.0126
   -62.000    0.0128
   -61.000    0.0130
   -60.000    0.0132
   -59.000    0.0135
   -58.000    0.0137
   -57.000    0.0139
   -56.000    0.0142
   -55.000    0.0144
   -54.000    0.0147
   -53.000    0.0149
   -52.000    0.0152
   -51.000    0.0155
   -50.000    0.0158
   -49.000    0.0161
   -48.000    0.0165
   -47.000    0.0168
   -46.000    0.0171
   -45.000    0.0175
   -44.000    0.0179
   -43.000    0.0183
   -42.000    0.0187
   -41.000    0.0191
   -40.000    0.0196
   -39.000    0.0200
   -38.000    0.0205
   -37.000    0.0210
   -36.000    0.0216
   -35.000    0.0221
   -34.000    0.0227
   -33.000    0.0234
   -32.000    0.0241
   -31.000    0.0248
   -30.000    0.0255
   -29.000    0.0263
   -28.000    0.0272
   -27.000    0.0281
   -26.000    0.0291
   -25.000    0.0302
   -24.000    0.0314
   -23.000    0.0327
   -22.000    0.0341
   -21.000    0.0357
   -20.000    0.0374
   -19.000    0.0394
   -18.000    0.0416
   -17.000    0.0441
   -16.000    0.0471
   -15.000    0.0505
   -14.000    0.0546
   -13.000    0.0593
   -12.000    0.0649
   -11.000    0.0711
   -10.000    0.0779
    -9.000    0.0847
    -8.000    0.0911
    -7.000    0.0967
    -6.000    0.1013
    -5.000    0.1050
    -4.000    0.1081
    -3.000    0.1111
    -2.000    0.1143
    -1.000    0.1184
     0.000    0.1238
     1.000    0.1306
     2.000    0.1388
     3.000    0.1484
     4.000    0.1590
     5.000    0.1705
     6.000    0.1827
     7.000    0.1956
     8.000    0.2093
     9.000    0.2240
    10.000    0.2398
    11.000    0.2573
    12.000    0.2772
    13.000    0.3000
    14.000    0.3268
    15.000    0.3583
    16.000    0.3948
    17.000    0.4354
    18.000    0.4783
    19.000    0.5201
    20.000    0.5580
    21.000    0.5898
    22.000    0.6150
    23.000    0.6335
    24.000    0.6454
    25.000    0.6519
    26.000    0.6547
    27.000    0.6554
    28.000    0.6551
    29.000    0.6553
    30.000    0.6573
    31.000    0.6627
    32.000    0.6715
    33.000    0.6833
    34.000    0.6966
    35.000    0.7105
    36.000    0.7240
    37.000    0.7365
    38.000    0.7474
    39.000    0.7563
    40.000    0.7627
    41.000    0.7660
    42.000    0.7652
    43.000    0.7598
    44.000    0.7502
    45.000    0.7378
    46.000    0.7244
    47.000    0.7111
    48.000    0.6985
    49.000    0.6867
    50.000    0.6758
    51.000    0.6663
    52.000    0.6586
    53.000    0.6527
    54.000    0.6477
    55.000    0.6424
    56.000    0.6361
    57.000    0.6288
    58.000    0.6214
    59.000    0.6156
    60.000    0.6124
    61.000    0.6122
    62.000    0.6141
    63.000    0.6164
    64.000    0.6173
    65.000    0.6156
    66.000    0.6105
    67.000    0.6014
    68.000    0.5883
    69.000    0.5716
    70.000    0.5527
    71.000    0.5336
    72.000    0.5165
    73.000    0.5036
    74.000    0.4963
    75.000    0.4952
    76.000    0.4994
    77.000    0.5059
    78.000    0.5109
    79.000    0.5113
    80.000    0.5064
    81.000    0.4974
    82.000    0.4866
    83.000    0.4759
    84.000    0.4671
    85.000    0.4615
    86.000    0.4606
    87.000    0.4658
    88.000    0.4779
    89.000    0.4969
    90.000    0.5212
    91.000    0.5472
    92.000    0.5706
    93.000    0.5889
    94.000    0.6032
    95.000    0.6170
    96.000    0.6334
    97.000    0.6532
    98.000    0.6748
    99.000    0.6958
   100.000    0.7153
   101.000    0.7346
   102.000    0.7553
   103.000    0.7774
   104.000    0.7993
   105.000    0.8177
   106.000    0.8296
   107.000    0.8331
   108.000    0.8276
   109.000    0.8142
   110.000    0.7950
   111.000    0.7726
   112.000    0.7498
   113.000    0.7292
   114.000    0.7133
   115.000    0.7035
   116.000    0.7005
   117.000    0.7039
   118.000    0.7124
   119.000    0.7242
   120.000    0.7372
   121.000    0.7505
   122.000    0.7635
   123.000    0.7762
   124.000    0.7873
   125.000    0.7952
   126.000    0.7983
   127.000    0.7960
   128.000    0.7881
   129.000    0.7752
   130.000    0.7585
   131.000    0.7401
   132.000    0.7224
   133.000    0.7072
   134.000    0.6952
   135.000    0.6857
   136.000    0.6780
   137.000    0.6716
   138.000    0.6658
   139.000    0.6606
   140.000    0.6561
   141.000    0.6528
   142.000    0.6513
   143.000    0.6519
   144.000    0.6543
   145.000    0.6583
   146.000    0.6635
   147.000    0.6695
   148.000    0.6758
   149.000    0.6816
   150.000    0.6862
   151.000    0.6887
   152.000    0.6882
   153.000    0.6840
   154.000    0.6754
   155.000    0.6628
   156.000    0.6472
   157.000    0.6297
   158.000    0.6106
   159.000    0.5896
   160.000    0.5663
   161.000    0.5410
   162.000    0.5145
   163.000    0.4884
   164.000    0.4648
   165.000    0.4458
   166.000    0.4329
   167.000    0.4268
   168.000    0.4273
   169.000    0.4332
   170.000    0.4425
   171.000    0.4529
   172.000    0.4630
   173.000    0.4719
   174.000    0.4793
   175.000    0.4841
   176.000    0.4854
   177.000    0.4832
   178.000    0.4790
   179.000    0.4755
   180.000    0.4751
   181.000    0.4787
   182.000    0.4859
   183.000    0.4943
   184.000    0.5009
   185.000    0.5043
   186.000    0.5046
   187.000    0.5036
   188.000    0.5026
   189.000    0.5029
   190.000    0.5056
   191.000    0.5121
   192.000    0.5232
   193.000    0.5391
   194.000    0.5584
   195.000    0.5791
   196.000    0.5991
   197.000    0.6169
   198.000    0.6312
   199.000    0.6406
   200.000    0.6443
   201.000    0.6426
   202.000    0.6369
   203.000    0.6292
   204.000    0.6206
   205.000    0.6104
   206.000    0.5969
   207.000    0.5784
   208.000    0.5546
   209.000    0.5272
   210.000    0.4990
   211.000    0.4725
   212.000    0.4492
   213.000    0.4295
   214.000    0.4136
   215.000    0.4017
   216.000    0.3942
   217.000    0.3915
   218.000    0.3938
   219.000    0.4008
   220.000    0.4123
   221.000    0.4276
   222.000    0.4460
   223.000    0.4663
   224.000    0.4873
   225.000    0.5076
   226.000    0.5265
   227.000    0.5434
   228.000    0.5577
   229.000    0.5673
   230.000    0.5694
   231.000    0.5617
   232.000    0.5458
   233.000    0.5272
   234.000    0.5121
   235.000    0.5044
   236.000    0.5052
   237.000    0.5128
   238.000    0.5237
   239.000    0.5339
   240.000    0.5399
   241.000    0.5411
   242.000    0.5403
   243.000    0.5423
   244.000    0.5521
   245.000    0.5738
   246.000    0.6101
   247.000    0.6625
   248.000    0.7303
   249.000    0.8088
   250.000    0.8869
   251.000    0.9481
   252.000    0.9764
   253.000    0.9656
   254.000    0.9224
   255.000    0.8612
   256.000    0.7959
   257.000    0.7359
   258.000    0.6855
   259.000    0.6460
   260.000    0.6173
   261.000    0.5982
   262.000    0.5857
   263.000    0.5758
   264.000    0.5650
   265.000    0.5517
   266.000    0.5357
   267.000    0.5177
   268.000    0.4983
   269.000    0.4778
   270.000    0.4562
   271.000    0.4330
   272.000    0.4079
   273.000    0.3805
   274.000    0.3509
   275.000    0.3196
   276.000    0.2878
   277.000    0.2572
   278.000    0.2293
   279.000    0.2050
   280.000    0.1847
   281.000    0.1682
   282.000    0.1548
   283.000    0.1441
   284.000    0.1356
   285.000    0.1289
   286.000    0.1237
   287.000    0.1197
   288.000    0.1169
   289.000    0.1151
   290.000    0.1142
   291.000    0.1142
   292.000    0.1151
   293.000    0.1170
   294.000    0.1197
   295.000    0.1236
   296.000    0.1287
   297.000    0.1351
   298.000    0.1433
   299.000    0.1534
   300.000    0.1659
   301.000    0.1816
   302.000    0.2011
   303.000    0.2255
   304.000    0.2561
   305.000    0.2947
   306.000    0.3430
   307.000    0.4024
   308.000    0.4729
   309.000    0.5509
   310.000    0.6282
   311.000    0.6931
   312.000    0.7353
   313.000    0.7502
   314.000    0.7390
   315.000    0.7073
   316.000    0.6632
   317.000    0.6150
   318.000    0.5690
   319.000    0.5296
   320.000    0.5006
   321.000    0.4853
   322.000    0.4858
   323.000    0.5022
   324.000    0.5322
   325.000    0.5696
   326.000    0.6050
   327.000    0.6284
   328.000    0.6330
   329.000    0.6175
   330.000    0.5856
   331.000    0.5445
   332.000    0.5019
   333.000    0.4631
   334.000    0.4300
   335.000    0.4020
   336.000    0.3777
   337.000    0.3555
   338.000    0.3347
   339.000    0.3151
   340.000    0.2962
   341.000    0.2778
   342.000    0.2595
   343.000    0.2412
   344.000    0.2233
   345.000    0.2059
   346.000    0.1896
   347.000    0.1747
   348.000    0.1611
   349.000    0.1490
   350.000    0.1382
   351.000    0.1287
   352.000    0.1203
   353.000    0.1129
   354.000    0.1065
   355.000    0.1010
   356.000    0.0962
   357.000    0.0922
   358.000    0.0889
   359.000    0.0863
   360.000    0.0844
   361.000    0.0831
   362.000    0.0824
   363.000    0.0824
   364.000    0.0829
   365.000    0.0840
   366.000    0.0858
   367.000    0.0882
   368.000    0.0913
   369.000    0.0954
   370.000    0.1004
   371.000    0.1067
   372.000    0.1145
   373.000    0.1242
   374.000    0.1362
   375.000    0.1512
   376.000    0.1700
   377.000    0.1935
   378.000    0.2229
   379.000    0.2589
   380.000    0.3014
   381.000    0.3484
   382.000    0.3954
   383.000    0.4365
   384.000    0.4660
   385.000    0.4811
   386.000    0.4823
   387.000    0.4717
   388.000    0.4515
   389.000    0.4237
   390.000    0.3901
   391.000    0.3538
   392.000    0.3183
   393.000    0.2866
   394.000    0.2607
   395.000    0.2407
   396.000    0.2263
   397.000    0.2167
   398.000    0.2111
   399.000    0.2089
   400.000    0.2097
   401.000    0.2132
   402.000    0.2191
   403.000    0.2276
   404.000    0.2385
   405.000    0.2522
   406.000    0.2687
   407.000    0.2883
   408.000    0.3117
   409.000    0.3395
   410.000    0.3727
   411.000    0.4126
   412.000    0.4606
   413.000    0.5178
   414.000    0.5840
   415.000    0.6567
   416.000    0.7302
   417.000    0.7954
   418.000    0.8416
   419.000    0.8593
   420.000    0.8428
   421.000    0.7936
   422.000    0.7222
   423.000    0.6432
   424.000    0.5682
   425.000    0.5038
   426.000    0.4519
   427.000    0.4125
   428.000    0.3847
   429.000    0.3676
   430.000    0.3606
   431.000    0.3637
   432.000    0.3776
   433.000    0.4031
   434.000    0.4412
   435.000    0.4920
   436.000    0.5534
   437.000    0.6198
   438.000    0.6815
   439.000    0.7282
   440.000    0.7525
   441.000    0.7522
   442.000    0.7270
   443.000    0.6783
   444.000    0.6112
   445.000    0.5353
   446.000    0.4611
   447.000    0.3953
   448.000    0.3406
   449.000    0.2966
   450.000    0.2619
   451.000    0.2347
   452.000    0.2135
   453.000    0.1970
   454.000    0.1844
   455.000    0.1749
   456.000    0.1681
   457.000    0.1635
   458.000    0.1609
   459.000    0.1602
   460.000    0.1614
   461.000    0.1645
   462.000    0.1695
   463.000    0.1768
   464.000    0.1866
   465.000    0.1994
   466.000    0.2158
   467.000    0.2364
   468.000    0.2618
   469.000    0.2927
   470.000    0.3290
   471.000    0.3706
   472.000    0.4167
   473.000    0.4665
   474.000    0.5193
   475.000    0.5746
   476.000    0.6329
   477.000    0.6950
   478.000    0.7613
   479.000    0.8300
   480.000    0.8963
   481.000    0.9538
   482.000    0.9958
   483.000    1.0169
   484.000    1.0146
   485.000    0.9908
   486.000    0.9518
   487.000    0.9057
   488.000    0.8594
   489.000    0.8168
   490.000    0.7786
   491.000    0.7437
   492.000    0.7106
   493.000    0.6790
   494.000    0.6502
   495.000    0.6261
   496.000    0.6084
   497.000    0.5967
   498.000    0.5893
   499.000    0.5839
   500.000    0.5806
   501.000    0.5822
   502.000    0.5907
   503.000    0.6043
   504.000    0.6182
   505.000    0.6279
   506.000    0.6313
   507.000    0.6283
   508.000    0.6174
   509.000    0.5956
   510.000    0.5619
   511.000    0.5189
   512.000    0.4708
   513.000    0.4210
   514.000    0.3718
   515.000    0.3250
   516.000    0.2827
   517.000    0.2460
   518.000    0.2153
   519.000    0.1901
   520.000    0.1696
   521.000    0.1528
   522.000    0.1391
   523.000    0.1277
   524.000    0.1183
   525.000    0.1104
   526.000    0.1038
   527.000    0.0982
   528.000    0.0935
   529.000    0.0895
   530.000    0.0861
   531.000    0.0833
   532.000    0.0811
   533.000    0.0792
   534.000    0.0778
   535.000    0.0767
   536.000    0.0760
   537.000    0.0757
   538.000    0.0758
   539.000    0.0761
   540.000    0.0769
   541.000    0.0781
   542.000    0.0797
   543.000    0.0818
   544.000    0.0844
   545.000    0.0876
   546.000    0.0915
   547.000    0.0963
   548.000    0.1019
   549.000    0.1088
   550.000    0.1171
   551.000    0.1271
   552.000    0.1393
   553.000    0.1543
   554.000    0.1727
   555.000    0.1956
   556.000    0.2243
   557.000    0.2602
   558.000    0.3053
   559.000    0.3610
   560.000    0.4282
   561.000    0.5054
   562.000    0.5873
   563.000    0.6646
   564.000    0.7246
   565.000    0.7541
   566.000    0.7448
   567.000    0.6979
   568.000    0.6248
   569.000    0.5417
   570.000    0.4623
   571.000    0.3940
   572.000    0.3388
   573.000    0.2958
   574.000    0.2632
   575.000    0.2392
   576.000    0.2223
   577.000    0.2114
   578.000    0.2059
   579.000    0.2054
   580.000    0.2099
   581.000    0.2197
   582.000    0.2354
   583.000    0.2574
   584.000    0.2860
   585.000    0.3204
   586.000    0.3585
   587.000    0.3973
   588.000    0.4336
   589.000    0.4657
   590.000    0.4931
   591.000    0.5165
   592.000    0.5367
   593.000    0.5544
   594.000    0.5683
   595.000    0.5752
   596.000    0.5701
   597.000    0.5489
   598.000    0.5113
   599.000    0.4612
   600.000    0.4048
   601.000    0.3484
   602.000    0.2969
   603.000    0.2524
   604.000    0.2156
   605.000    0.1858
   606.000    0.1617
   607.000    0.1422
   608.000    0.1264
   609.000    0.1134
   610.000    0.1027
   611.000    0.0938
   612.000    0.0863
   613.000    0.0799
   614.000    0.0745
   615.000    0.0698
   616.000    0.0657
   617.000    0.0622
   618.000    0.0591
   619.000    0.0564
   620.000    0.0540
   621.000    0.0519
   622.000    0.0501
   623.000    0.0484
   624.000    0.0470
   625.000    0.0457
   626.000    0.0445
   627.000    0.0435
   628.000    0.0426
   629.000    0.0419
   630.000    0.0412
   631.000    0.0406
   632.000    0.0401
   633.000    0.0397
   634.000    0.0394
   635.000    0.0391
   636.000    0.0389
   637.000    0.0388
   638.000    0.0388
   639.000    0.0388
   640.000    0.0388
   641.000    0.0390
   642.000    0.0392
   643.000    0.0394
   644.000    0.0397
   645.000    0.0401
   646.000    0.0406
   647.000    0.0411
   648.000    0.0417
   649.000    0.0424
   650.000    0.0432
   651.000    0.0440
   652.000    0.0450
   653.000    0.0460
   654.000    0.0471
   655.000    0.0484
   656.000    0.0498
   657.000    0.0513
   658.000    0.0530
   659.000    0.0548
   660.000    0.0568
   661.000    0.0591
   662.000    0.0615
   663.000    0.0642
   664.000    0.0672
   665.000    0.0705
   666.000    0.0742
   667.000    0.0783
   668.000    0.0828
   669.000    0.0880
   670.000    0.0938
   671.000    0.1003
   672.000    0.1077
   673.000    0.1162
   674.000    0.1259
   675.000    0.1372
   676.000    0.1503
   677.000    0.1657
   678.000    0.1839
   679.000    0.2056
   680.000    0.2317
   681.000    0.2635
   682.000    0.3025
   683.000    0.3507
   684.000    0.4106
   685.000    0.4849
   686.000    0.5758
   687.000    0.6835
   688.000    0.8031
   689.000    0.9228
   690.000    1.0273
   691.000    1.1075
   692.000    1.1656
   693.000    1.2062
   694.000    1.2270
   695.000    1.2206
   696.000    1.1852
   697.000    1.1306
   698.000    1.0750
   699.000    1.0340
   700.000    1.0126
   701.000    1.0048
   702.000    0.9992
   703.000    0.9862
   704.000    0.9605
   705.000    0.9198
   706.000    0.8633
   707.000    0.7939
   708.000    0.7201
   709.000    0.6521
   710.000    0.5973
   711.000    0.5579
   712.000    0.5311
   713.000    0.5104
   714.000    0.4877
   715.000    0.4571
   716.000    0.4173
   717.000    0.3715
   718.000    0.3249
   719.000    0.2819
   720.000    0.2448
   721.000    0.2138
   722.000    0.1883
   723.000    0.1674
   724.000    0.1501
   725.000    0.1359
   726.000    0.1240
   727.000    0.1139
   728.000    0.1053
   729.000    0.0980
   730.000    0.0916
   731.000    0.0861
   732.000    0.0812
   733.000    0.0770
   734.000    0.0732
   735.000    0.0699
   736.000    0.0669
   737.000    0.0643
   738.000    0.0620
   739.000    0.0599
   740.000    0.0580
   741.000    0.0563
   742.000    0.0549
   743.000    0.0535
   744.000    0.0524
   745.000    0.0513
   746.000    0.0504
   747.000    0.0496
   748.000    0.0490
   749.000    0.0484
   750.000    0.0479
   751.000    0.0476
   752.000    0.0473
   753.000    0.0471
   754.000    0.0471
   755.000    0.0471
   756.000    0.0472
   757.000    0.0474
   758.000    0.0476
   759.000    0.0480
   760.000    0.0485
   761.000    0.0491
   762.000    0.0498
   763.000    0.0506
   764.000    0.0516
   765.000    0.0527
   766.000    0.0539
   767.000    0.0553
   768.000    0.0569
   769.000    0.0587
   770.000    0.0607
   771.000    0.0630
   772.000    0.0655
   773.000    0.0684
   774.000    0.0716
   775.000    0.0753
   776.000    0.0796
   777.000    0.0844
   778.000    0.0899
   779.000    0.0964
   780.000    0.1039
   781.000    0.1126
   782.000    0.1230
   783.000    0.1355
   784.000    0.1504
   785.000    0.1686
   786.000    0.1909
   787.000    0.2184
   788.000    0.2519
   789.000    0.2923
   790.000    0.3392
   791.000    0.3900
   792.000    0.4401
   793.000    0.4846
   794.000    0.5208
   795.000    0.5487
   796.000    0.5692
   797.000    0.5844
   798.000    0.5976
   799.000    0.6123
   800.000    0.6308
   801.000    0.6531
   802.000    0.6792
   803.000    0.7105
   804.000    0.7497
   805.000    0.7997
   806.000    0.8602
   807.000    0.9262
   808.000    0.9858
   809.000    1.0201
   810.000    1.0078
   811.000    0.9420
   812.000    0.8378
   813.000    0.7206
   814.000    0.6104
   815.000    0.5165
   816.000    0.4406
   817.000    0.3809
   818.000    0.3345
   819.000    0.2989
   820.000    0.2719
   821.000    0.2519
   822.000    0.2377
   823.000    0.2288
   824.000    0.2245
   825.000    0.2248
   826.000    0.2300
   827.000    0.2403
   828.000    0.2565
   829.000    0.2790
   830.000    0.3080
   831.000    0.3424
   832.000    0.3791
   833.000    0.4137
   834.000    0.4431
   835.000    0.4672
   836.000    0.4874
   837.000    0.5042
   838.000    0.5170
   839.000    0.5258
   840.000    0.5316
   841.000    0.5358
   842.000    0.5378
   843.000    0.5352
   844.000    0.5246
   845.000    0.5041
   846.000    0.4726
   847.000    0.4314
   848.000    0.3843
   849.000    0.3369
   850.000    0.2939
   851.000    0.2577
   852.000    0.2285
   853.000    0.2054
   854.000    0.1876
   855.000    0.1738
   856.000    0.1635
   857.000    0.1559
   858.000    0.1506
   859.000    0.1474
   860.000    0.1458
   861.000    0.1459
   862.000    0.1476
   863.000    0.1509
   864.000    0.1558
   865.000    0.1626
   866.000    0.1714
   867.000    0.1825
   868.000    0.1965
   869.000    0.2138
   870.000    0.2354
   871.000    0.2622
   872.000    0.2957
   873.000    0.3377
   874.000    0.3906
   875.000    0.4569
   876.000    0.5394
   877.000    0.6392
   878.000    0.7535
   879.000    0.8720
   880.000    0.9773
   881.000    1.0511
   882.000    1.0871
   883.000    1.0956
   884.000    1.0959
   885.000    1.1023
   886.000    1.1135
   887.000    1.1109
   888.000    1.0707
   889.000    0.9843
   890.000    0.8661
   891.000    0.7400
   892.000    0.6239
   893.000    0.5256
   894.000    0.4457
   895.000    0.3820
   896.000    0.3314
   897.000    0.2914
   898.000    0.2594
   899.000    0.2339
   900.000    0.2134
   901.000    0.1969
   902.000    0.1838
   903.000    0.1733
   904.000    0.1652
   905.000    0.1591
   906.000    0.1549
   907.000    0.1523
   908.000    0.1513
   909.000    0.1519
   910.000    0.1542
   911.000    0.1583
   912.000    0.1644
   913.000    0.1729
   914.000    0.1842
   915.000    0.1989
   916.000    0.2178
   917.000    0.2421
   918.000    0.2734
   919.000    0.3134
   920.000    0.3646
   921.000    0.4294
   922.000    0.5094
   923.000    0.6028
   924.000    0.7007
   925.000    0.7836
   926.000    0.8255
   927.000    0.8096
   928.000    0.7427
   929.000    0.6492
   930.000    0.5528
   931.000    0.4669
   932.000    0.3961
   933.000    0.3398
   934.000    0.2959
   935.000    0.2619
   936.000    0.2357
   937.000    0.2156
   938.000    0.2003
   939.000    0.1889
   940.000    0.1808
   941.000    0.1754
   942.000    0.1723
   943.000    0.1715
   944.000    0.1728
   945.000    0.1762
   946.000    0.1817
   947.000    0.1895
   948.000    0.2000
   949.000    0.2135
   950.000    0.2305
   951.000    0.2519
   952.000    0.2786
   953.000    0.3121
   954.000    0.3543
   955.000    0.4073
   956.000    0.4744
   957.000    0.5587
   958.000    0.6635
   959.000    0.7895
   960.000    0.9320
   961.000    1.0774
   962.000    1.2045
   963.000    1.2944
   964.000    1.3405
   965.000    1.3455
   966.000    1.3101
   967.000    1.2318
   968.000    1.1145
   969.000    0.9742
   970.000    0.8320
   971.000    0.7035
   972.000    0.5955
   973.000    0.5085
   974.000    0.4399
   975.000    0.3864
   976.000    0.3450
   977.000    0.3133
   978.000    0.2895
   979.000    0.2722
   980.000    0.2605
   981.000    0.2538
   982.000    0.2520
   983.000    0.2551
   984.000    0.2634
   985.000    0.2776
   986.000    0.2988
   987.000    0.3284
   988.000    0.3684
   989.000    0.4212
   990.000    0.4889
   991.000    0.5720
   992.000    0.6665
   993.000    0.7594
   994.000    0.8273
   995.000    0.8457
   996.000    0.8065
   997.000    0.7254
   998.000    0.6284
   999.000    0.5354
  1000.000    0.4559
  1001.000    0.3921
  1002.000    0.3425
  1003.000    0.3050
  1004.000    0.2772
  1005.000    0.2574
  1006.000    0.2444
  1007.000    0.2373
  1008.000    0.2356
  1009.000    0.2394
  1010.000    0.2490
  1011.000    0.2650
  1012.000    0.2887
  1013.000    0.3217
  1014.000    0.3660
  1015.000    0.4241
  1016.000    0.4977
  1017.000    0.5856
  1018.000    0.6805
  1019.000    0.7646
  1020.000    0.8120
  1021.000    0.8029
  1022.000    0.7401
  1023.000    0.6462
  1024.000    0.5460
  1025.000    0.4550
  1026.000    0.3786
  1027.000    0.3170
  1028.000    0.2679
  1029.000    0.2289
  1030.000    0.1978
  1031.000    0.1728
  1032.000    0.1525
  1033.000    0.1358
  1034.000    0.1219
  1035.000    0.1104
  1036.000    0.1006
  1037.000    0.0922
  1038.000    0.0851
  1039.000    0.0789
  1040.000    0.0735
  1041.000    0.0688
  1042.000    0.0646
  1043.000    0.0609
  1044.000    0.0576
  1045.000    0.0547
  1046.000    0.0520
  1047.000    0.0496
  1048.000    0.0475
  1049.000    0.0455
  1050.000    0.0437
  1051.000    0.0421
  1052.000    0.0406
  1053.000    0.0393
  1054.000    0.0380
  1055.000    0.0368
  1056.000    0.0358
  1057.000    0.0348
  1058.000    0.0339
  1059.000    0.0330
  1060.000    0.0323
  1061.000    0.0315
  1062.000    0.0309
  1063.000    0.0302
  1064.000    0.0297
  1065.000    0.0291
  1066.000    0.0286
  1067.000    0.0282
  1068.000    0.0277
  1069.000    0.0273
  1070.000    0.0270
  1071.000    0.0266
  1072.000    0.0263
  1073.000    0.0260
  1074.000    0.0258
  1075.000    0.0255
  1076.000    0.0253
  1077.000    0.0251
  1078.000    0.0250
  1079.000    0.0248
  1080.000    0.0247
  1081.000    0.0246
  1082.000    0.0245
  1083.000    0.0244
  1084.000    0.0244
  1085.000    0.0243
  1086.000    0.0243
  1087.000    0.0243
  1088.000    0.0243
  1089.000    0.0244
  1090.000    0.0244
  1091.000    0.0245
  1092.000    0.0246
  1093.000    0.0247
  1094.000    0.0248
  1095.000    0.0250
  1096.000    0.0251
  1097.000    0.0253
  1098.000    0.0255
  1099.000    0.0258
  1100.000    0.0260
  1101.000    0.0263
  1102.000    0.0266
  1103.000    0.0270
  1104.000    0.0273
  1105.000    0.0277
  1106.000    0.0281
  1107.000    0.0286
  1108.000    0.0291
  1109.000    0.0296
  1110.000    0.0302
  1111.000    0.0308
  1112.000    0.0315
  1113.000    0.0322
  1114.000    0.0329
  1115.000    0.0338
  1116.000    0.0347
  1117.000    0.0356
  1118.000    0.0366
  1119.000    0.0377
  1120.000    0.0389
  1121.000    0.0402
  1122.000    0.0416
  1123.000    0.0431
  1124.000    0.0448
  1125.000    0.0466
  1126.000    0.0486
  1127.000    0.0507
  1128.000    0.0531
  1129.000    0.0557
  1130.000    0.0585
  1131.000    0.0617
  1132.000    0.0652
  1133.000    0.0692
  1134.000    0.0736
  1135.000    0.0785
  1136.000    0.0842
  1137.000    0.0906
  1138.000    0.0979
  1139.000    0.1064
  1140.000    0.1162
  1141.000    0.1277
  1142.000    0.1413
  1143.000    0.1575
  1144.000    0.1770
  1145.000    0.2007
  1146.000    0.2298
  1147.000    0.2659
  1148.000    0.3110
  1149.000    0.3675
  1150.000    0.4379
  1151.000    0.5238
  1152.000    0.6236
  1153.000    0.7284
  1154.000    0.8191
  1155.000    0.8703
  1156.000    0.8659
  1157.000    0.8130
  1158.000    0.7358
  1159.000    0.6584
  1160.000    0.5955
  1161.000    0.5528
  1162.000    0.5316
  1163.000    0.5315
  1164.000    0.5520
  1165.000    0.5923
  1166.000    0.6501
  1167.000    0.7190
  1168.000    0.7878
  1169.000    0.8425
  1170.000    0.8719
  1171.000    0.8718
  1172.000    0.8443
  1173.000    0.7964
  1174.000    0.7390
  1175.000    0.6843
  1176.000    0.6430
  1177.000    0.6216
  1178.000    0.6228
  1179.000    0.6469
  1180.000    0.6907
  1181.000    0.7470
  1182.000    0.8035
  1183.000    0.8450
  1184.000    0.8579
  1185.000    0.8344
  1186.000    0.7760
  1187.000    0.6933
  1188.000    0.6019
  1189.000    0.5151
  1190.000    0.4401
  1191.000    0.3788
  1192.000    0.3302
  1193.000    0.2923
  1194.000    0.2631
  1195.000    0.2410
  1196.000    0.2245
  1197.000    0.2129
  1198.000    0.2056
  1199.000    0.2020
  1200.000    0.2023
  1201.000    0.2063
  1202.000    0.2146
  1203.000    0.2276
  1204.000    0.2463
  1205.000    0.2719
  1206.000    0.3063
  1207.000    0.3516
  1208.000    0.4102
  1209.000    0.4838
  1210.000    0.5717
  1211.000    0.6670
  1212.000    0.7527
  1213.000    0.8034
  1214.000    0.7991
  1215.000    0.7406
  1216.000    0.6491
  1217.000    0.5497
  1218.000    0.4583
  1219.000    0.3812
  1220.000    0.3188
  1221.000    0.2691
  1222.000    0.2297
  1223.000    0.1983
  1224.000    0.1731
  1225.000    0.1527
  1226.000    0.1359
  1227.000    0.1221
  1228.000    0.1106
  1229.000    0.1009
  1230.000    0.0926
  1231.000    0.0856
  1232.000    0.0795
  1233.000    0.0743
  1234.000    0.0697
  1235.000    0.0657
  1236.000    0.0621
  1237.000    0.0590
  1238.000    0.0563
  1239.000    0.0538
  1240.000    0.0516
  1241.000    0.0497
  1242.000    0.0479
  1243.000    0.0464
  1244.000    0.0450
  1245.000    0.0437
  1246.000    0.0426
  1247.000    0.0416
  1248.000    0.0408
  1249.000    0.0400
  1250.000    0.0394
  1251.000    0.0388
  1252.000    0.0383
  1253.000    0.0379
  1254.000    0.0376
  1255.000    0.0373
  1256.000    0.0372
  1257.000    0.0371
  1258.000    0.0371
  1259.000    0.0372
  1260.000    0.0373
  1261.000    0.0375
  1262.000    0.0379
  1263.000    0.0383
  1264.000    0.0388
  1265.000    0.0393
  1266.000    0.0401
  1267.000    0.0409
  1268.000    0.0418
  1269.000    0.0429
  1270.000    0.0442
  1271.000    0.0456
  1272.000    0.0472
  1273.000    0.0490
  1274.000    0.0511
  1275.000    0.0535
  1276.000    0.0562
  1277.000    0.0594
  1278.000    0.0629
  1279.000    0.0671
  1280.000    0.0719
  1281.000    0.0775
  1282.000    0.0841
  1283.000    0.0918
  1284.000    0.1010
  1285.000    0.1121
  1286.000    0.1256
  1287.000    0.1420
  1288.000    0.1622
  1289.000    0.1874
  1290.000    0.2189
  1291.000    0.2584
  1292.000    0.3075
  1293.000    0.3671
  1294.000    0.4358
  1295.000    0.5085
  1296.000    0.5752
  1297.000    0.6241
  1298.000    0.6463
  1299.000    0.6404
  1300.000    0.6124
  1301.000    0.5716
  1302.000    0.5257
  1303.000    0.4787
  1304.000    0.4321
  1305.000    0.3866
  1306.000    0.3432
  1307.000    0.3028
  1308.000    0.2663
  1309.000    0.2340
  1310.000    0.2063
  1311.000    0.1832
  1312.000    0.1644
  1313.000    0.1495
  1314.000    0.1380
  1315.000    0.1292
  1316.000    0.1229
  1317.000    0.1186
  1318.000    0.1160
  1319.000    0.1152
  1320.000    0.1160
  1321.000    0.1184
  1322.000    0.1226
  1323.000    0.1287
  1324.000    0.1370
  1325.000    0.1481
  1326.000    0.1624
  1327.000    0.1809
  1328.000    0.2047
  1329.000    0.2350
  1330.000    0.2734
  1331.000    0.3215
  1332.000    0.3794
  1333.000    0.4452
  1334.000    0.5122
  1335.000    0.5696
  1336.000    0.6058
  1337.000    0.6138
  1338.000    0.5956
  1339.000    0.5610
  1340.000    0.5216
  1341.000    0.4846
  1342.000    0.4520
  1343.000    0.4223
  1344.000    0.3933
  1345.000    0.3631
  1346.000    0.3308
  1347.000    0.2972
  1348.000    0.2635
  1349.000    0.2315
  1350.000    0.2025
  1351.000    0.1773
  1352.000    0.1562
  1353.000    0.1388
  1354.000    0.1247
  1355.000    0.1133
  1356.000    0.1041
  1357.000    0.0967
  1358.000    0.0906
  1359.000    0.0857
  1360.000    0.0817
  1361.000    0.0785
  1362.000    0.0760
  1363.000    0.0740
  1364.000    0.0726
  1365.000    0.0716
  1366.000    0.0710
  1367.000    0.0708
  1368.000    0.0710
  1369.000    0.0716
  1370.000    0.0726
  1371.000    0.0739
  1372.000    0.0756
  1373.000    0.0778
  1374.000    0.0804
  1375.000    0.0835
  1376.000    0.0872
  1377.000    0.0915
  1378.000    0.0966
  1379.000    0.1025
  1380.000    0.1094
  1381.000    0.1176
  1382.000    0.1272
  1383.000    0.1386
  1384.000    0.1522
  1385.000    0.1686
  1386.000    0.1884
  1387.000    0.2127
  1388.000    0.2426
  1389.000    0.2799
  1390.000    0.3265
  1391.000    0.3850
  1392.000    0.4579
  1393.000    0.5465
  1394.000    0.6484
  1395.000    0.7535
  1396.000    0.8409
  1397.000    0.8851
  1398.000    0.8730
  1399.000    0.8155
  1400.000    0.7382
  1401.000    0.6644
  1402.000    0.6074
  1403.000    0.5718
  1404.000    0.5587
  1405.000    0.5680
  1406.000    0.5992
  1407.000    0.6513
  1408.000    0.7205
  1409.000    0.7974
  1410.000    0.8664
  1411.000    0.9112
  1412.000    0.9240
  1413.000    0.9100
  1414.000    0.8817
  1415.000    0.8509
  1416.000    0.8276
  1417.000    0.8198
  1418.000    0.8334
  1419.000    0.8689
  1420.000    0.9178
  1421.000    0.9593
  1422.000    0.9661
  1423.000    0.9209
  1424.000    0.8304
  1425.000    0.7180
  1426.000    0.6064
  1427.000    0.5079
  1428.000    0.4262
  1429.000    0.3602
  1430.000    0.3074
  1431.000    0.2651
  1432.000    0.2311
  1433.000    0.2034
  1434.000    0.1807
  1435.000    0.1619
  1436.000    0.1463
  1437.000    0.1330
  1438.000    0.1218
  1439.000    0.1122
  1440.000    0.1039
  1441.000    0.0968
  1442.000    0.0906
  1443.000    0.0851
  1444.000    0.0804
  1445.000    0.0762
  1446.000    0.0725
  1447.000    0.0693
  1448.000    0.0664
  1449.000    0.0640
  1450.000    0.0618
  1451.000    0.0599
  1452.000    0.0583
  1453.000    0.0569
  1454.000    0.0557
  1455.000    0.0548
  1456.000    0.0541
  1457.000    0.0536
  1458.000    0.0533
  1459.000    0.0532
  1460.000    0.0533
  1461.000    0.0536
  1462.000    0.0542
  1463.000    0.0550
  1464.000    0.0561
  1465.000    0.0575
  1466.000    0.0592
  1467.000    0.0614
  1468.000    0.0639
  1469.000    0.0669
  1470.000    0.0706
  1471.000    0.0749
  1472.000    0.0801
  1473.000    0.0862
  1474.000    0.0936
  1475.000    0.1024
  1476.000    0.1131
  1477.000    0.1262
  1478.000    0.1422
  1479.000    0.1620
  1480.000    0.1868
  1481.000    0.2179
  1482.000    0.2572
  1483.000    0.3071
  1484.000    0.3700
  1485.000    0.4476
  1486.000    0.5388
  1487.000    0.6362
  1488.000    0.7221
  1489.000    0.7713
  1490.000    0.7650
  1491.000    0.7058
  1492.000    0.6153
  1493.000    0.5178
  1494.000    0.4285
  1495.000    0.3535
  1496.000    0.2929
  1497.000    0.2448
  1498.000    0.2067
  1499.000    0.1765
  1500.000    0.1523
  1501.000    0.1328
  1502.000    0.1168
  1503.000    0.1037
  1504.000    0.0928
  1505.000    0.0836
  1506.000    0.0758
  1507.000    0.0692
  1508.000    0.0636
  1509.000    0.0587
  1510.000    0.0544
  1511.000    0.0507
  1512.000    0.0474
  1513.000    0.0445
  1514.000    0.0419
  1515.000    0.0396
  1516.000    0.0375
  1517.000    0.0357
  1518.000    0.0340
  1519.000    0.0325
  1520.000    0.0311
  1521.000    0.0299
  1522.000    0.0288
  1523.000    0.0278
  1524.000    0.0268
  1525.000    0.0260
  1526.000    0.0252
  1527.000    0.0245
  1528.000    0.0238
  1529.000    0.0232
  1530.000    0.0226
  1531.000    0.0221
  1532.000    0.0216
  1533.000    0.0212
  1534.000    0.0208
  1535.000    0.0204
  1536.000    0.0201
  1537.000    0.0198
  1538.000    0.0195
  1539.000    0.0193
  1540.000    0.0191
  1541.000    0.0189
  1542.000    0.0187
  1543.000    0.0186
  1544.000    0.0184
  1545.000    0.0183
  1546.000    0.0182
  1547.000    0.0182
  1548.000    0.0181
  1549.000    0.0181
  1550.000    0.0181
  1551.000    0.0181
  1552.000    0.0181
  1553.000    0.0181
  1554.000    0.0182
  1555.000    0.0183
  1556.000    0.0184
  1557.000    0.0185
  1558.000    0.0186
  1559.000    0.0188
  1560.000    0.0190
  1561.000    0.0192
  1562.000    0.0194
  1563.000    0.0197
  1564.000    0.0200
  1565.000    0.0203
  1566.000    0.0207
  1567.000    0.0210
  1568.000    0.0214
  1569.000    0.0219
  1570.000    0.0224
  1571.000    0.0229
  1572.000    0.0235
  1573.000    0.0241
  1574.000    0.0248
  1575.000    0.0255
  1576.000    0.0263
  1577.000    0.0271
  1578.000    0.0281
  1579.000    0.0291
  1580.000    0.0302
  1581.000    0.0314
  1582.000    0.0327
  1583.000    0.0341
  1584.000    0.0357
  1585.000    0.0374
  1586.000    0.0393
  1587.000    0.0414
  1588.000    0.0437
  1589.000    0.0462
  1590.000    0.0490
  1591.000    0.0522
  1592.000    0.0557
  1593.000    0.0597
  1594.000    0.0642
  1595.000    0.0693
  1596.000    0.0752
  1597.000    0.0819
  1598.000    0.0896
  1599.000    0.0986
  1600.000    0.1092
  1601.000    0.1217
  1602.000    0.1365
  1603.000    0.1544
  1604.000    0.1762
  1605.000    0.2028
  1606.000    0.2358
  1607.000    0.2771
  1608.000    0.3287
  1609.000    0.3934
  1610.000    0.4732
  1611.000    0.5680
  1612.000    0.6724
  1613.000    0.7717
  1614.000    0.8425
  1615.000    0.8640
  1616.000    0.8335
  1617.000    0.7692
  1618.000    0.6967
  1619.000    0.6354
  1620.000    0.5953
  1621.000    0.5800
  1622.000    0.5905
  1623.000    0.6262
  1624.000    0.6846
  1625.000    0.7574
  1626.000    0.8270
  1627.000    0.8670
  1628.000    0.8548
  1629.000    0.7892
  1630.000    0.6907
  1631.000    0.5843
  1632.000    0.4865
  1633.000    0.4039
  1634.000    0.3369
  1635.000    0.2833
  1636.000    0.2406
  1637.000    0.2064
  1638.000    0.1788
  1639.000    0.1563
  1640.000    0.1378
  1641.000    0.1224
  1642.000    0.1095
  1643.000    0.0986
  1644.000    0.0893
  1645.000    0.0813
  1646.000    0.0744
  1647.000    0.0683
  1648.000    0.0630
  1649.000    0.0583
  1650.000    0.0542
  1651.000    0.0505
  1652.000    0.0472
  1653.000    0.0442
  1654.000    0.0415
  1655.000    0.0391
  1656.000    0.0369
  1657.000    0.0349
  1658.000    0.0330
  1659.000    0.0314
  1660.000    0.0298
  1661.000    0.0284
  1662.000    0.0271
  1663.000    0.0259
  1664.000    0.0247
  1665.000    0.0237
  1666.000    0.0227
  1667.000    0.0218
  1668.000    0.0209
  1669.000    0.0201
  1670.000    0.0194
  1671.000    0.0187
  1672.000    0.0180
  1673.000    0.0174
  1674.000    0.0168
  1675.000    0.0163
  1676.000    0.0157
  1677.000    0.0153
  1678.000    0.0148
  1679.000    0.0143
  1680.000    0.0139
  1681.000    0.0135
  1682.000    0.0131
  1683.000    0.0128
  1684.000    0.0124
  1685.000    0.0121
  1686.000    0.0118
  1687.000    0.0115
  1688.000    0.0112
  1689.000    0.0109
  1690.000    0.0107
  1691.000    0.0104
  1692.000    0.0102
  1693.000    0.0099
  1694.000    0.0097
  1695.000    0.0095
  1696.000    0.0093
  1697.000    0.0091
  1698.000    0.0089
  1699.000    0.0087
  1700.000    0.0086
  1701.000    0.0084
  1702.000    0.0082
  1703.000    0.0081
  1704.000    0.0079
  1705.000    0.0078
  1706.000    0.0076
  1707.000    0.0075
  1708.000    0.0073
  1709.000    0.0072
  1710.000    0.0071
  1711.000    0.0070
  1712.000    0.0069
  1713.000    0.0067
  1714.000    0.0066
  1715.000    0.0065
  1716.000    0.0064
  1717.000    0.0063
  1718.000    0.0062
  1719.000    0.0061
  1720.000    0.0060
  1721.000    0.0059
  1722.000    0.0059
  1723.000    0.0058
  1724.000    0.0057
  1725.000    0.0056
  1726.000    0.0055
  1727.000    0.0055
  1728.000    0.0054
  1729.000    0.0053
  1730.000    0.0052
  1731.000    0.0052
  1732.000    0.0051
  1733.000    0.0050
  1734.000    0.0050
  1735.000    0.0049
  1736.000    0.0049
  1737.000    0.0048
  1738.000    0.0047
  1739.000    0.0047
  1740.000    0.0046
  1741.000    0.0046
  1742.000    0.0045
  1743.000    0.0045
  1744.000    0.0044
  1745.000    0.0044
  1746.000    0.0043
  1747.000    0.0043
  1748.000    0.0042
  1749.000    0.0042
  1750.000    0.0041
  1751.000    0.0041
  1752.000    0.0040
  1753.000    0.0040
  1754.000    0.0040
  1755.000    0.0039
  1756.000    0.0039
  1757.000    0.0038
  1758.000    0.0038
  1759.000    0.0038
  1760.000    0.0037
  1761.000    0.0037
  1762.000    0.0037
  1763.000    0.0036
  1764.000    0.0036
  1765.000    0.0036
  1766.000    0.0035
  1767.000    0.0035
  1768.000    0.0035
  1769.000    0.0034
  1770.000    0.0034
  1771.000    0.0034
  1772.000    0.0033
  1773.000    0.0033
  1774.000    0.0033
  1775.000    0.0033
  1776.000    0.0032
  1777.000    0.0032
  1778.000    0.0032
  1779.000    0.0032
  1780.000    0.0031
  1781.000    0.0031
  1782.000    0.0031
  1783.000    0.0031
  1784.000    0.0030
  1785.000    0.0030
  1786.000    0.0030
  1787.000    0.0030
  1788.000    0.0029
  1789.000    0.0029
  1790.000    0.0029
  1791.000    0.0029
  1792.000    0.0029
  1793.000    0.0028
  1794.000    0.0028
  1795.000    0.0028
  1796.000    0.0028
  1797.000    0.0028
  1798.000    0.0027
  1799.000    0.0027
  1800.000    0.0027
  1801.000    0.0027
  1802.000    0.0027
  1803.000    0.0026
  1804.000    0.0026
  1805.000    0.0026
  1806.000    0.0026
  1807.000    0.0026
  1808.000    0.0026
  1809.000    0.0025
  1810.000    0.0025
  1811.000    0.0025
  1812.000    0.0025
  1813.000    0.0025
  1814.000    0.0025
  1815.000    0.0024
  1816.000    0.0024
  1817.000    0.0024
  1818.000    0.0024
  1819.000    0.0024
  1820.000    0.0024
  1821.000    0.0023
  1822.000    0.0023
  1823.000    0.0023
  1824.000    0.0023
  1825.000    0.0023
  1826.000    0.0023
  1827.000    0.0023
  1828.000    0.0023
  1829.000    0.0022
  1830.000    0.0022
  1831.000    0.0022
  1832.000    0.0022
  1833.000    0.0022
  1834.000    0.0022
  1835.000    0.0022
  1836.000    0.0022
  1837.000    0.0021
  1838.000    0.0021
  1839.000    0.0021
  1840.000    0.0021
  1841.000    0.0021
  1842.000    0.0021
  1843.000    0.0021
  1844.000    0.0021
  1845.000    0.0021
  1846.000    0.0020
  1847.000    0.0020
  1848.000    0.0020
  1849.000    0.0020
  1850.000    0.0020
  1851.000    0.0020
  1852.000    0.0020
  1853.000    0.0020
  1854.000    0.0020
  1855.000    0.0019
  1856.000    0.0019
  1857.000    0.0019
  1858.000    0.0019
  1859.000    0.0019
  1860.000    0.0019
  1861.000    0.0019
  1862.000    0.0019
  1863.000    0.0019
  1864.000    0.0019
  1865.000    0.0019
  1866.000    0.0018
  1867.000    0.0018
  1868.000    0.0018
  1869.000    0.0018
  1870.000    0.0018
  1871.000    0.0018
  1872.000    0.0018
  1873.000    0.0018
  1874.000    0.0018
  1875.000    0.0018
  1876.000    0.0018
  1877.000    0.0018
  1878.000    0.0017
  1879.000    0.0017
  1880.000    0.0017
  1881.000    0.0017
  1882.000    0.0017
  1883.000    0.0017
  1884.000    0.0017
  1885.000    0.0017
  1886.000    0.0017
  1887.000    0.0017
  1888.000    0.0017
  1889.000    0.0017
  1890.000    0.0017
  1891.000    0.0017
  1892.000    0.0016
  1893.000    0.0016
  1894.000    0.0016
  1895.000    0.0016
  1896.000    0.0016
  1897.000    0.0016
  1898.000    0.0016
  1899.000    0.0016
  1900.000    0.0016
  1901.000    0.0016
  1902.000    0.0016
  1903.000    0.0016
  1904.000    0.0016
  1905.000    0.0016
  1906.000    0.0016
  1907.000    0.0015
  1908.000    0.0015
  1909.000    0.0015
  1910.000    0.0015
  1911.000    0.0015
  1912.000    0.0015
  1913.000    0.0015
  1914.000    0.0015
  1915.000    0.0015
  1916.000    0.0015
  1917.000    0.0015
  1918.000    0.0015
  1919.000    0.0015
  1920.000    0.0015
  1921.000    0.0015
  1922.000    0.0015
  1923.000    0.0015
  1924.000    0.0015
  1925.000    0.0014
  1926.000    0.0014
  1927.000    0.0014
  1928.000    0.0014
  1929.000    0.0014
  1930.000    0.0014
  1931.000    0.0014
  1932.000    0.0014
  1933.000    0.0014
  1934.000    0.0014
  1935.000    0.0014
  1936.000    0.0014
  1937.000    0.0014
  1938.000    0.0014
  1939.000    0.0014
  1940.000    0.0014
  1941.000    0.0014
  1942.000    0.0014
  1943.000    0.0014
  1944.000    0.0014
  1945.000    0.0013
  1946.000    0.0013
  1947.000    0.0013
  1948.000    0.0013
  1949.000    0.0013
  1950.000    0.0013
  1951.000    0.0013
  1952.000    0.0013
  1953.000    0.0013
  1954.000    0.0013
  1955.000    0.0013
  1956.000    0.0013
  1957.000    0.0013
  1958.000    0.0013
  1959.000    0.0013
  1960.000    0.0013
  1961.000    0.0013
  1962.000    0.0013
  1963.000    0.0013
  1964.000    0.0013
  1965.000    0.0013
  1966.000    0.0013
  1967.000    0.0013
  1968.000    0.0013
  1969.000    0.0012
  1970.000    0.0012
  1971.000    0.0012
  1972.000    0.0012
  1973.000    0.0012
  1974.000    0.0012
  1975.000    0.0012
  1976.000    0.0012
  1977.000    0.0012
  1978.000    0.0012
  1979.000    0.0012
  1980.000    0.0012
  1981.000    0.0012
  1982.000    0.0012
  1983.000    0.0012
  1984.000    0.0012
  1985.000    0.0012
  1986.000    0.0012
  1987.000    0.0012
  1988.000    0.0012
  1989.000    0.0012
  1990.000    0.0012
  1991.000    0.0012
  1992.000    0.0012
  1993.000    0.0012
  1994.000    0.0012
  1995.000    0.0012
  1996.000    0.0012
  1997.000    0.0012
  1998.000    0.0011
  1999.000    0.0011
  2000.000    0.0011
  2001.000    0.0011
  2002.000    0.0011
  2003.000    0.0011
  2004.000    0.0011
  2005.000    0.0011
  2006.000    0.0011
  2007.000    0.0011
  2008.000    0.0011
  2009.000    0.0011
  2010.000    0.0011
  2011.000    0.0011
  2012.000    0.0011
  2013.000    0.0011
  2014.000    0.0011
  2015.000    0.0011
  2016.000    0.0011
  2017.000    0.0011
  2018.000    0.0011
  2019.000    0.0011
  2020.000    0.0011
  2021.000    0.0011
  2022.000    0.0011
  2023.000    0.0011
  2024.000    0.0011
  2025.000    0.0011
  2026.000    0.0011
  2027.000    0.0011
  2028.000    0.0011
  2029.000    0.0011
  2030.000    0.0011
  2031.000    0.0011
  2032.000    0.0010
  2033.000    0.0010
  2034.000    0.0010
  2035.000    0.0010
  2036.000    0.0010
  2037.000    0.0010
  2038.000    0.0010
  2039.000    0.0010
  2040.000    0.0010
  2041.000    0.0010
  2042.000    0.0010
  2043.000    0.0010
  2044.000    0.0010
  2045.000    0.0010
  2046.000    0.0010
  2047.000    0.0010
  2048.000    0.0010
  2049.000    0.0010
  2050.000    0.0010
  2051.000    0.0010
  2052.000    0.0010
  2053.000    0.0010
  2054.000    0.0010
  2055.000    0.0010
  2056.000    0.0010
  2057.000    0.0010
  2058.000    0.0010
  2059.000    0.0010
  2060.000    0.0010
  2061.000    0.0010
  2062.000    0.0010
  2063.000    0.0010
  2064.000    0.0010
  2065.000    0.0010
  2066.000    0.0010
  2067.000    0.0010
  2068.000    0.0010
  2069.000    0.0010
  2070.000    0.0010
  2071.000    0.0010
  2072.000    0.0010
  2073.000    0.0010
  2074.000    0.0010
  2075.000    0.0010
  2076.000    0.0009
  2077.000    0.0009
  2078.000    0.0009
  2079.000    0.0009
  2080.000    0.0009
  2081.000    0.0009
  2082.000    0.0009
  2083.000    0.0009
  2084.000    0.0009
  2085.000    0.0009
  2086.000    0.0009
  2087.000    0.0009
  2088.000    0.0009
  2089.000    0.0009
  2090.000    0.0009
  2091.000    0.0009
  2092.000    0.0009
  2093.000    0.0009
  2094.000    0.0009
  2095.000    0.0009
  2096.000    0.0009
  2097.000    0.0009
  2098.000    0.0009
  2099.000    0.0009
  2100.000    0.0009
  2101.000    0.0009
  2102.000    0.0009
  2103.000    0.0009
  2104.000    0.0009
  2105.000    0.0009
  2106.000    0.0009
  2107.000    0.0009
  2108.000    0.0009
  2109.000    0.0009
  2110.000    0.0009
  2111.000    0.0009
  2112.000    0.0009
  2113.000    0.0009
  2114.000    0.0009
  2115.000    0.0009
  2116.000    0.0009
  2117.000    0.0009
  2118.000    0.0009
  2119.000    0.0009
  2120.000    0.0009
  2121.000    0.0009
  2122.000    0.0009
  2123.000    0.0009
  2124.000    0.0009
  2125.000    0.0009
  2126.000    0.0009
  2127.000    0.0009
  2128.000    0.0009
  2129.000    0.0009
  2130.000    0.0009
  2131.000    0.0009
  2132.000    0.0009
  2133.000    0.0009
  2134.000    0.0009
  2135.000    0.0008
  2136.000    0.0008
  2137.000    0.0008
  2138.000    0.0008
  2139.000    0.0008
  2140.000    0.0008
  2141.000    0.0008
  2142.000    0.0008
  2143.000    0.0008
  2144.000    0.0008
  2145.000    0.0008
  2146.000    0.0008
  2147.000    0.0008
  2148.000    0.0008
  2149.000    0.0008
  2150.000    0.0008
  2151.000    0.0008
  2152.000    0.0008
  2153.000    0.0008
  2154.000    0.0008
  2155.000    0.0008
  2156.000    0.0008
  2157.000    0.0008
  2158.000    0.0008
  2159.000    0.0008
  2160.000    0.0008
  2161.000    0.0008
  2162.000    0.0008
  2163.000    0.0008
  2164.000    0.0008
  2165.000    0.0008
  2166.000    0.0008
  2167.000    0.0008
  2168.000    0.0008
  2169.000    0.0008
  2170.000    0.0008
  2171.000    0.0008
  2172.000    0.0008
  2173.000    0.0008
  2174.000    0.0008
  2175.000    0.0008
  2176.000    0.0008
  2177.000    0.0008
  2178.000    0.0008
  2179.000    0.0008
  2180.000    0.0008
  2181.000    0.0008
  2182.000    0.0008
  2183.000    0.0008
  2184.000    0.0008
  2185.000    0.0008
  2186.000    0.0008
  2187.000    0.0008
  2188.000    0.0008
  2189.000    0.0008
  2190.000    0.0008
  2191.000    0.0008
  2192.000    0.0008
  2193.000    0.0008
  2194.000    0.0008
  2195.000    0.0008
  2196.000    0.0008
  2197.000    0.0008
  2198.000    0.0008
  2199.000    0.0008
  2200.000    0.0008
  2201.000    0.0008
  2202.000    0.0008
  2203.000    0.0008
  2204.000    0.0008
  2205.000    0.0008
  2206.000    0.0008
  2207.000    0.0008
  2208.000    0.0008
  2209.000    0.0008
  2210.000    0.0008
  2211.000    0.0008
  2212.000    0.0008
  2213.000    0.0008
  2214.000    0.0008
  2215.000    0.0008
  2216.000    0.0008
  2217.000    0.0008
  2218.000    0.0008
  2219.000    0.0008
  2220.000    0.0008
  2221.000    0.0008
  2222.000    0.0008
  2223.000    0.0008
  2224.000    0.0007
  2225.000    0.0007
  2226.000    0.0007
  2227.000    0.0007
  2228.000    0.0007
  2229.000    0.0007
  2230.000    0.0007
  2231.000    0.0007
  2232.000    0.0007
  2233.000    0.0007
  2234.000    0.0007
  2235.000    0.0007
  2236.000    0.0007
  2237.000    0.0007
  2238.000    0.0007
  2239.000    0.0007
  2240.000    0.0007
  2241.000    0.0007
  2242.000    0.0007
  2243.000    0.0007
  2244.000    0.0007
  2245.000    0.0007
  2246.000    0.0007
  2247.000    0.0007
  2248.000    0.0007
  2249.000    0.0007
  2250.000    0.0007
  2251.000    0.0007
  2252.000    0.0007
  2253.000    0.0007
  2254.000    0.0007
  2255.000    0.0007
  2256.000    0.0007
  2257.000    0.0007
  2258.000    0.0007
  2259.000    0.0007
  2260.000    0.0007
  2261.000    0.0007
  2262.000    0.0007
  2263.000    0.0007
  2264.000    0.0007
  2265.000    0.0007
  2266.000    0.0007
  2267.000    0.0007
  2268.000    0.0007
  2269.000    0.0007
  2270.000    0.0007
  2271.000    0.0007
  2272.000    0.0007
  2273.000    0.0007
  2274.000    0.0007
  2275.000    0.0007
  2276.000    0.0007
  2277.000    0.0007
  2278.000    0.0007
  2279.000    0.0007
  2280.000    0.0007
  2281.000    0.0007
  2282.000    0.0007
  2283.000    0.0007
  2284.000    0.0007
  2285.000    0.0007
  2286.000    0.0007
  2287.000    0.0007
  2288.000    0.0007
  2289.000    0.0007
  2290.000    0.0007
  2291.000    0.0007
  2292.000    0.0007
  2293.000    0.0007
  2294.000    0.0007
  2295.000    0.0007
  2296.000    0.0007
  2297.000    0.0007
  2298.000    0.0007
  2299.000    0.0007
  2300.000    0.0007
  2301.000    0.0007
  2302.000    0.0007
  2303.000    0.0007
  2304.000    0.0007
  2305.000    0.0007
  2306.000    0.0007
  2307.000    0.0007
  2308.000    0.0007
  2309.000    0.0007
  2310.000    0.0007
  2311.000    0.0007
  2312.000    0.0007
  2313.000    0.0007
  2314.000    0.0007
  2315.000    0.0007
  2316.000    0.0007
  2317.000    0.0007
  2318.000    0.0007
  2319.000    0.0007
  2320.000    0.0007
  2321.000    0.0007
  2322.000    0.0007
  2323.000    0.0007
  2324.000    0.0007
  2325.000    0.0007
  2326.000    0.0007
  2327.000    0.0007
  2328.000    0.0007
  2329.000    0.0007
  2330.000    0.0007
  2331.000    0.0007
  2332.000    0.0007
  2333.000    0.0007
  2334.000    0.0007
  2335.000    0.0007
  2336.000    0.0007
  2337.000    0.0007
  2338.000    0.0007
  2339.000    0.0007
  2340.000    0.0007
  2341.000    0.0007
  2342.000    0.0007
  2343.000    0.0007
  2344.000    0.0007
  2345.000    0.0007
  2346.000    0.0007
  2347.000    0.0007
  2348.000    0.0007
  2349.000    0.0007
  2350.000    0.0007
  2351.000    0.0007
  2352.000    0.0007
  2353.000    0.0007
  2354.000    0.0007
  2355.000    0.0007
  2356.000    0.0007
  2357.000    0.0007
  2358.000    0.0007
  2359.000    0.0007
  2360.000    0.0007
  2361.000    0.0007
  2362.000    0.0007
  2363.000    0.0007
  2364.000    0.0007
  2365.000    0.0007
  2366.000    0.0007
  2367.000    0.0007
  2368.000    0.0007
  2369.000    0.0007
  2370.000    0.0007
  2371.000    0.0007
  2372.000    0.0007
  2373.000    0.0007
  2374.000    0.0007
  2375.000    0.0007
  2376.000    0.0007
  2377.000    0.0007
  2378.000    0.0007
  2379.000    0.0007
  2380.000    0.0007
  2381.000    0.0007
  2382.000    0.0007
  2383.000    0.0007
  2384.000    0.0007
  2385.000    0.0007
  2386.000    0.0007
  2387.000    0.0007
  2388.000    0.0007
  2389.000    0.0007
  2390.000    0.0007
  2391.000    0.0007
  2392.000    0.0007
  2393.000    0.0007
  2394.000    0.0007
  2395.000    0.0007
  2396.000    0.0007
  2397.000    0.0007
  2398.000    0.0007
  2399.000    0.0007
  2400.000    0.0007
  2401.000    0.0007
  2402.000    0.0007
  2403.000    0.0007
  2404.000    0.0007
  2405.000    0.0007
  2406.000    0.0007
  2407.000    0.0007
  2408.000    0.0007
  2409.000    0.0007
  2410.000    0.0007
  2411.000    0.0007
  2412.000    0.0007
  2413.000    0.0007
  2414.000    0.0007
  2415.000    0.0007
  2416.000    0.0007
  2417.000    0.0007
  2418.000    0.0007
  2419.000    0.0007
  2420.000    0.0007
  2421.000    0.0007
  2422.000    0.0007
  2423.000    0.0007
  2424.000    0.0007
  2425.000    0.0007
  2426.000    0.0007
  2427.000    0.0007
  2428.000    0.0007
  2429.000    0.0007
  2430.000    0.0007
  2431.000    0.0007
  2432.000    0.0007
  2433.000    0.0007
  2434.000    0.0007
  2435.000    0.0007
  2436.000    0.0007
  2437.000    0.0007
  2438.000    0.0007
  2439.000    0.0007
  2440.000    0.0007
  2441.000    0.0007
  2442.000    0.0007
  2443.000    0.0007
  2444.000    0.0007
  2445.000    0.0007
  2446.000    0.0007
  2447.000    0.0007
  2448.000    0.0007
  2449.000    0.0007
  2450.000    0.0007
  2451.000    0.0007
  2452.000    0.0007
  2453.000    0.0007
  2454.000    0.0007
  2455.000    0.0007
  2456.000    0.0007
  2457.000    0.0007
  2458.000    0.0007
  2459.000    0.0007
  2460.000    0.0007
  2461.000    0.0007
  2462.000    0.0007
  2463.000    0.0007
  2464.000    0.0007
  2465.000    0.0007
  2466.000    0.0007
  2467.000    0.0007
  2468.000    0.0007
  2469.000    0.0007
  2470.000    0.0007
  2471.000    0.0007
  2472.000    0.0007
  2473.000    0.0007
  2474.000    0.0007
  2475.000    0.0007
  2476.000    0.0007
  2477.000    0.0007
  2478.000    0.0007
  2479.000    0.0007
  2480.000    0.0007
  2481.000    0.0007
  2482.000    0.0007
  2483.000    0.0007
  2484.000    0.0007
  2485.000    0.0007
  2486.000    0.0007
  2487.000    0.0007
  2488.000    0.0007
  2489.000    0.0007
  2490.000    0.0007
  2491.000    0.0007
  2492.000    0.0007
  2493.000    0.0007
  2494.000    0.0008
  2495.000    0.0008
  2496.000    0.0008
  2497.000    0.0008
  2498.000    0.0008
  2499.000    0.0008
  2500.000    0.0008
  2501.000    0.0008
  2502.000    0.0008
  2503.000    0.0008
  2504.000    0.0008
  2505.000    0.0008
  2506.000    0.0008
  2507.000    0.0008
  2508.000    0.0008
  2509.000    0.0008
  2510.000    0.0008
  2511.000    0.0008
  2512.000    0.0008
  2513.000    0.0008
  2514.000    0.0008
  2515.000    0.0008
  2516.000    0.0008
  2517.000    0.0008
  2518.000    0.0008
  2519.000    0.0008
  2520.000    0.0008
  2521.000    0.0008
  2522.000    0.0008
  2523.000    0.0008
  2524.000    0.0008
  2525.000    0.0008
  2526.000    0.0008
  2527.000    0.0008
  2528.000    0.0008
  2529.000    0.0008
  2530.000    0.0008
  2531.000    0.0008
  2532.000    0.0008
  2533.000    0.0008
  2534.000    0.0008
  2535.000    0.0008
  2536.000    0.0008
  2537.000    0.0008
  2538.000    0.0008
  2539.000    0.0008
  2540.000    0.0008
  2541.000    0.0008
  2542.000    0.0008
  2543.000    0.0008
  2544.000    0.0008
  2545.000    0.0008
  2546.000    0.0008
  2547.000    0.0008
  2548.000    0.0008
  2549.000    0.0008
  2550.000    0.0008
  2551.000    0.0008
  2552.000    0.0008
  2553.000    0.0008
  2554.000    0.0008
  2555.000    0.0008
  2556.000    0.0008
  2557.000    0.0008
  2558.000    0.0008
  2559.000    0.0009
  2560.000    0.0009
  2561.000    0.0009
  2562.000    0.0009
  2563.000    0.0009
  2564.000    0.0009
  2565.000    0.0009
  2566.000    0.0009
  2567.000    0.0009
  2568.000    0.0009
  2569.000    0.0009
  2570.000    0.0009
  2571.000    0.0009
  2572.000    0.0009
  2573.000    0.0009
  2574.000    0.0009
  2575.000    0.0009
  2576.000    0.0009
  2577.000    0.0009
  2578.000    0.0009
  2579.000    0.0009
  2580.000    0.0009
  2581.000    0.0009
  2582.000    0.0009
  2583.000    0.0009
  2584.000    0.0009
  2585.000    0.0009
  2586.000    0.0009
  2587.000    0.0009
  2588.000    0.0009
  2589.000    0.0009
  2590.000    0.0009
  2591.000    0.0009
  2592.000    0.0009
  2593.000    0.0009
  2594.000    0.0009
  2595.000    0.0009
  2596.000    0.0009
  2597.000    0.0009
  2598.000    0.0010
  2599.000    0.0010
  2600.000    0.0010
  2601.000    0.0010
  2602.000    0.0010
  2603.000    0.0010
  2604.000    0.0010
  2605.000    0.0010
  2606.000    0.0010
  2607.000    0.0010
  2608.000    0.0010
  2609.000    0.0010
  2610.000    0.0010
  2611.000    0.0010
  2612.000    0.0010
  2613.000    0.0010
  2614.000    0.0010
  2615.000    0.0010
  2616.000    0.0010
  2617.000    0.0010
  2618.000    0.0010
  2619.000    0.0010
  2620.000    0.0010
  2621.000    0.0010
  2622.000    0.0010
  2623.000    0.0010
  2624.000    0.0010
  2625.000    0.0010
  2626.000    0.0011
  2627.000    0.0011
  2628.000    0.0011
  2629.000    0.0011
  2630.000    0.0011
  2631.000    0.0011
  2632.000    0.0011
  2633.000    0.0011
  2634.000    0.0011
  2635.000    0.0011
  2636.000    0.0011
  2637.000    0.0011
  2638.000    0.0011
  2639.000    0.0011
  2640.000    0.0011
  2641.000    0.0011
  2642.000    0.0011
  2643.000    0.0011
  2644.000    0.0011
  2645.000    0.0011
  2646.000    0.0011
  2647.000    0.0012
  2648.000    0.0012
  2649.000    0.0012
  2650.000    0.0012
  2651.000    0.0012
  2652.000    0.0012
  2653.000    0.0012
  2654.000    0.0012
  2655.000    0.0012
  2656.000    0.0012
  2657.000    0.0012
  2658.000    0.0012
  2659.000    0.0012
  2660.000    0.0012
  2661.000    0.0012
  2662.000    0.0012
  2663.000    0.0012
  2664.000    0.0013
  2665.000    0.0013
  2666.000    0.0013
  2667.000    0.0013
  2668.000    0.0013
  2669.000    0.0013
  2670.000    0.0013
  2671.000    0.0013
  2672.000    0.0013
  2673.000    0.0013
  2674.000    0.0013
  2675.000    0.0013
  2676.000    0.0013
  2677.000    0.0013
  2678.000    0.0013
  2679.000    0.0014
  2680.000    0.0014
  2681.000    0.0014
  2682.000    0.0014
  2683.000    0.0014
  2684.000    0.0014
  2685.000    0.0014
  2686.000    0.0014
  2687.000    0.0014
  2688.000    0.0014
  2689.000    0.0014
  2690.000    0.0014
  2691.000    0.0015
  2692.000    0.0015
  2693.000    0.0015
  2694.000    0.0015
  2695.000    0.0015
  2696.000    0.0015
  2697.000    0.0015
  2698.000    0.0015
  2699.000    0.0015
  2700.000    0.0015
  2701.000    0.0015
  2702.000    0.0016
  2703.000    0.0016
  2704.000    0.0016
  2705.000    0.0016
  2706.000    0.0016
  2707.000    0.0016
  2708.000    0.0016
  2709.000    0.0016
  2710.000    0.0016
  2711.000    0.0016
  2712.000    0.0017
  2713.000    0.0017
  2714.000    0.0017
  2715.000    0.0017
  2716.000    0.0017
  2717.000    0.0017
  2718.000    0.0017
  2719.000    0.0017
  2720.000    0.0018
  2721.000    0.0018
  2722.000    0.0018
  2723.000    0.0018
  2724.000    0.0018
  2725.000    0.0018
  2726.000    0.0018
  2727.000    0.0018
  2728.000    0.0019
  2729.000    0.0019
  2730.000    0.0019
  2731.000    0.0019
  2732.000    0.0019
  2733.000    0.0019
  2734.000    0.0019
  2735.000    0.0020
  2736.000    0.0020
  2737.000    0.0020
  2738.000    0.0020
  2739.000    0.0020
  2740.000    0.0020
  2741.000    0.0021
  2742.000    0.0021
  2743.000    0.0021
  2744.000    0.0021
  2745.000    0.0021
  2746.000    0.0022
  2747.000    0.0022
  2748.000    0.0022
  2749.000    0.0022
  2750.000    0.0022
  2751.000    0.0022
  2752.000    0.0023
  2753.000    0.0023
  2754.000    0.0023
  2755.000    0.0023
  2756.000    0.0023
  2757.000    0.0024
  2758.000    0.0024
  2759.000    0.0024
  2760.000    0.0024
  2761.000    0.0025
  2762.000    0.0025
  2763.000    0.0025
  2764.000    0.0025
  2765.000    0.0026
  2766.000    0.0026
  2767.000    0.0026
  2768.000    0.0026
  2769.000    0.0027
  2770.000    0.0027
  2771.000    0.0027
  2772.000    0.0027
  2773.000    0.0028
  2774.000    0.0028
  2775.000    0.0028
  2776.000    0.0029
  2777.000    0.0029
  2778.000    0.0029
  2779.000    0.0029
  2780.000    0.0030
  2781.000    0.0030
  2782.000    0.0030
  2783.000    0.0031
  2784.000    0.0031
  2785.000    0.0031
  2786.000    0.0032
  2787.000    0.0032
  2788.000    0.0033
  2789.000    0.0033
  2790.000    0.0033
  2791.000    0.0034
  2792.000    0.0034
  2793.000    0.0035
  2794.000    0.0035
  2795.000    0.0035
  2796.000    0.0036
  2797.000    0.0036
  2798.000    0.0037
  2799.000    0.0037
  2800.000    0.0038
  2801.000    0.0038
  2802.000    0.0039
  2803.000    0.0039
  2804.000    0.0040
  2805.000    0.0040
  2806.000    0.0041
  2807.000    0.0041
  2808.000    0.0042
  2809.000    0.0042
  2810.000    0.0043
  2811.000    0.0043
  2812.000    0.0044
  2813.000    0.0045
  2814.000    0.0045
  2815.000    0.0046
  2816.000    0.0047
  2817.000    0.0047
  2818.000    0.0048
  2819.000    0.0049
  2820.000    0.0049
  2821.000    0.0050
  2822.000    0.0051
  2823.000    0.0052
  2824.000    0.0052
  2825.000    0.0053
  2826.000    0.0054
  2827.000    0.0055
  2828.000    0.0056
  2829.000    0.0057
  2830.000    0.0058
  2831.000    0.0059
  2832.000    0.0060
  2833.000    0.0061
  2834.000    0.0062
  2835.000    0.0063
  2836.000    0.0064
  2837.000    0.0065
  2838.000    0.0066
  2839.000    0.0067
  2840.000    0.0068
  2841.000    0.0070
  2842.000    0.0071
  2843.000    0.0072
  2844.000    0.0074
  2845.000    0.0075
  2846.000    0.0076
  2847.000    0.0078
  2848.000    0.0079
  2849.000    0.0081
  2850.000    0.0083
  2851.000    0.0084
  2852.000    0.0086
  2853.000    0.0088
  2854.000    0.0090
  2855.000    0.0091
  2856.000    0.0093
  2857.000    0.0095
  2858.000    0.0097
  2859.000    0.0100
  2860.000    0.0102
  2861.000    0.0104
  2862.000    0.0107
  2863.000    0.0109
  2864.000    0.0112
  2865.000    0.0114
  2866.000    0.0117
  2867.000    0.0120
  2868.000    0.0123
  2869.000    0.0126
  2870.000    0.0129
  2871.000    0.0132
  2872.000    0.0136
  2873.000    0.0139
  2874.000    0.0143
  2875.000    0.0147
  2876.000    0.0151
  2877.000    0.0155
  2878.000    0.0160
  2879.000    0.0164
  2880.000    0.0169
  2881.000    0.0174
  2882.000    0.0179
  2883.000    0.0185
  2884.000    0.0191
  2885.000    0.0197
  2886.000    0.0203
  2887.000    0.0210
  2888.000    0.0217
  2889.000    0.0224
  2890.000    0.0232
  2891.000    0.0240
  2892.000    0.0248
  2893.000    0.0257
  2894.000    0.0267
  2895.000    0.0277
  2896.000    0.0288
  2897.000    0.0299
  2898.000    0.0311
  2899.000    0.0324
  2900.000    0.0337
  2901.000    0.0352
  2902.000    0.0367
  2903.000    0.0383
  2904.000    0.0401
  2905.000    0.0420
  2906.000    0.0440
  2907.000    0.0461
  2908.000    0.0485
  2909.000    0.0510
  2910.000    0.0537
  2911.000    0.0566
  2912.000    0.0597
  2913.000    0.0632
  2914.000    0.0669
  2915.000    0.0710
  2916.000    0.0754
  2917.000    0.0803
  2918.000    0.0857
  2919.000    0.0916
  2920.000    0.0982
  2921.000    0.1054
  2922.000    0.1136
  2923.000    0.1226
  2924.000    0.1328
  2925.000    0.1443
  2926.000    0.1574
  2927.000    0.1722
  2928.000    0.1893
  2929.000    0.2089
  2930.000    0.2316
  2931.000    0.2581
  2932.000    0.2894
  2933.000    0.3264
  2934.000    0.3706
  2935.000    0.4239
  2936.000    0.4889
  2937.000    0.5687
  2938.000    0.6678
  2939.000    0.7919
  2940.000    0.9483
  2941.000    1.1461
  2942.000    1.3947
  2943.000    1.7007
  2944.000    2.0598
  2945.000    2.4428
  2946.000    2.7828
  2947.000    2.9862
  2948.000    2.9819
  2949.000    2.7735
  2950.000    2.4342
  2951.000    2.0543
  2952.000    1.6977
  2953.000    1.3932
  2954.000    1.1453
  2955.000    0.9478
  2956.000    0.7915
  2957.000    0.6675
  2958.000    0.5685
  2959.000    0.4887
  2960.000    0.4237
  2961.000    0.3704
  2962.000    0.3262
  2963.000    0.2892
  2964.000    0.2580
  2965.000    0.2315
  2966.000    0.2088
  2967.000    0.1892
  2968.000    0.1721
  2969.000    0.1573
  2970.000    0.1443
  2971.000    0.1328
  2972.000    0.1226
  2973.000    0.1135
  2974.000    0.1054
  2975.000    0.0981
  2976.000    0.0916
  2977.000    0.0856
  2978.000    0.0803
  2979.000    0.0754
  2980.000    0.0709
  2981.000    0.0668
  2982.000    0.0631
  2983.000    0.0597
  2984.000    0.0565
  2985.000    0.0536
  2986.000    0.0509
  2987.000    0.0484
  2988.000    0.0461
  2989.000    0.0440
  2990.000    0.0419
  2991.000    0.0401
  2992.000    0.0383
  2993.000    0.0367
  2994.000    0.0351
  2995.000    0.0337
  2996.000    0.0324
  2997.000    0.0311
  2998.000    0.0299
  2999.000    0.0287
  3000.000    0.0277
  3001.000    0.0267
  3002.000    0.0257
  3003.000    0.0248
  3004.000    0.0240
  3005.000    0.0231
  3006.000    0.0224
  3007.000    0.0216
  3008.000    0.0209
  3009.000    0.0203
  3010.000    0.0196
  3011.000    0.0190
  3012.000    0.0185
  3013.000    0.0179
  3014.000    0.0174
  3015.000    0.0169
  3016.000    0.0164
  3017.000    0.0159
  3018.000    0.0155
  3019.000    0.0151
  3020.000    0.0147
  3021.000    0.0143
  3022.000    0.0139
  3023.000    0.0135
  3024.000    0.0132
  3025.000    0.0129
  3026.000    0.0125
  3027.000    0.0122
  3028.000    0.0119
  3029.000    0.0117
  3030.000    0.0114
  3031.000    0.0111
  3032.000    0.0109
  3033.000    0.0106
  3034.000    0.0104
  3035.000    0.0101
  3036.000    0.0099
  3037.000    0.0097
  3038.000    0.0095
  3039.000    0.0093
  3040.000    0.0091
  3041.000    0.0089
  3042.000    0.0087
  3043.000    0.0085
  3044.000    0.0084
  3045.000    0.0082
  3046.000    0.0080
  3047.000    0.0079
  3048.000    0.0077
  3049.000    0.0076
  3050.000    0.0074
