# v / cm^-1  DOS / states (q-point cm^-1)^-1
  -110.000    0.0101
  -109.000    0.0102
  -108.000    0.0103
  -107.000    0.0104
  -106.000    0.0105
  -105.000    0.0106
  -104.000    0.0107
  -103.000    0.0109
  -102.000    0.0110
  -101.000    0.0111
  -100.000    0.0112
   -99.000    0.0113
   -98.000    0.0115
   -97.000    0.0116
   -96.000    0.0117
   -95.000    0.0119
   -94.000    0.0120
   -93.000    0.0122
   -92.000    0.0123
   -91.000    0.0125
   -90.000    0.0126
   -89.000    0.0128
   -88.000    0.0129
   -87.000    0.0131
   -86.000    0.0133
   -85.000    0.0134
   -84.000    0.0136
   -83.000    0.0138
   -82.000    0.0140
   -81.000    0.0141
   -80.000    0.0143
   -79.000    0.0145
   -78.000    0.0147
   -77.000    0.0149
   -76.000    0.0152
   -75.000    0.0154
   -74.000    0.0156
   -73.000    0.0158
   -72.000    0.0161
   -71.000    0.0163
   -70.000    0.0165
   -69.000    0.0168
   -68.000    0.0171
   -67.000    0.0173
   -66.000    0.0176
   -65.000    0.0179
   -64.000    0.0182
   -63.000    0.0185
   -62.000    0.0188
   -61.000    0.0191
   -60.000    0.0194
   -59.000    0.0198
   -58.000    0.0201
   -57.000    0.0205
   -56.000    0.0209
   -55.000    0.0213
   -54.000    0.0217
   -53.000    0.0221
   -52.000    0.0225
   -51.000    0.0230
   -50.000    0.0234
   -49.000    0.0239
   -48.000    0.0244
   -47.000    0.0249
   -46.000    0.0255
   -45.000    0.0260
   -44.000    0.0266
   -43.000    0.0272
   -42.000    0.0279
   -41.000    0.0285
   -40.000    0.0292
   -39.000    0.0299
   -38.000    0.0307
   -37.000    0.0315
   -36.000    0.0323
   -35.000    0.0332
   -34.000    0.0341
   -33.000    0.0351
   -32.000    0.0361
   -31.000    0.0372
   -30.000    0.0383
   -29.000    0.0395
   -28.000    0.0408
   -27.000    0.0421
   -26.000    0.0436
   -25.000    0.0451
   -24.000    0.0467
   -23.000    0.0485
   -22.000    0.0503
   -21.000    0.0523
   -20.000    0.0545
   -19.000    0.0569
   -18.000    0.0594
   -17.000    0.0621
   -16.000    0.0652
   -15.000    0.0685
   -14.000    0.0721
   -13.000    0.0762
   -12.000    0.0807
   -11.000    0.0857
   -10.000    0.0914
    -9.000    0.0978
    -8.000    0.1052
    -7.000    0.1136
    -6.000    0.1233
    -5.000    0.1343
    -4.000    0.1468
    -3.000    0.1609
    -2.000    0.1769
    -1.000    0.1951
     0.000    0.2161
     1.000    0.2400
     2.000    0.2670
     3.000    0.2971
     4.000    0.3304
     5.000    0.3671
     6.000    0.4083
     7.000    0.4552
     8.000    0.5093
     9.000    0.5717
    10.000    0.6419
    11.000    0.7170
    12.000    0.7910
    13.000    0.8571
    14.000    0.9102
    15.000    0.9486
    16.000    0.9740
    17.000    0.9901
    18.000    1.0020
    19.000    1.0143
    20.000    1.0288
    21.000    1.0432
    22.000    1.0521
    23.000    1.0499
    24.000    1.0340
    25.000    1.0068
    26.000    0.9756
    27.000    0.9475
    28.000    0.9267
    29.000    0.9131
    30.000    0.9039
    31.000    0.8961
    32.000    0.8872
    33.000    0.8768
    34.000    0.8661
    35.000    0.8564
    36.000    0.8485
    37.000    0.8424
    38.000    0.8372
    39.000    0.8319
    40.000    0.8259
    41.000    0.8192
    42.000    0.8121
    43.000    0.8044
    44.000    0.7960
    45.000    0.7867
    46.000    0.7766
    47.000    0.7665
    48.000    0.7570
    49.000    0.7487
    50.000    0.7414
    51.000    0.7348
    52.000    0.7286
    53.000    0.7225
    54.000    0.7169
    55.000    0.7128
    56.000    0.7122
    57.000    0.7164
    58.000    0.7264
    59.000    0.7423
    60.000    0.7634
    61.000    0.7885
    62.000    0.8152
    63.000    0.8399
    64.000    0.8594
    65.000    0.8715
    66.000    0.8769
    67.000    0.8790
    68.000    0.8832
    69.000    0.8940
    70.000    0.9126
    71.000    0.9362
    72.000    0.9597
    73.000    0.9790
    74.000    0.9922
    75.000    0.9991
    76.000    0.9996
    77.000    0.9922
    78.000    0.9754
    79.000    0.9499
    80.000    0.9189
    81.000    0.8857
    82.000    0.8525
    83.000    0.8216
    84.000    0.7960
    85.000    0.7785
    86.000    0.7700
    87.000    0.7705
    88.000    0.7792
    89.000    0.7954
    90.000    0.8177
    91.000    0.8444
    92.000    0.8730
    93.000    0.9008
    94.000    0.9260
    95.000    0.9486
    96.000    0.9713
    97.000    0.9982
    98.000    1.0317
    99.000    1.0709
   100.000    1.1109
   101.000    1.1443
   102.000    1.1648
   103.000    1.1698
   104.000    1.1605
   105.000    1.1399
   106.000    1.1121
   107.000    1.0814
   108.000    1.0510
   109.000    1.0219
   110.000    0.9936
   111.000    0.9648
   112.000    0.9347
   113.000    0.9037
   114.000    0.8734
   115.000    0.8452
   116.000    0.8196
   117.000    0.7956
   118.000    0.7711
   119.000    0.7459
   120.000    0.7215
   121.000    0.7007
   122.000    0.6852
   123.000    0.6755
   124.000    0.6710
   125.000    0.6706
   126.000    0.6732
   127.000    0.6784
   128.000    0.6862
   129.000    0.6969
   130.000    0.7108
   131.000    0.7276
   132.000    0.7467
   133.000    0.7672
   134.000    0.7881
   135.000    0.8088
   136.000    0.8293
   137.000    0.8494
   138.000    0.8684
   139.000    0.8854
   140.000    0.8994
   141.000    0.9105
   142.000    0.9192
   143.000    0.9248
   144.000    0.9264
   145.000    0.9238
   146.000    0.9187
   147.000    0.9137
   148.000    0.9108
   149.000    0.9109
   150.000    0.9133
   151.000    0.9168
   152.000    0.9197
   153.000    0.9201
   154.000    0.9155
   155.000    0.9031
   156.000    0.8795
   157.000    0.8424
   158.000    0.7917
   159.000    0.7312
   160.000    0.6679
   161.000    0.6096
   162.000    0.5623
   163.000    0.5286
   164.000    0.5083
   165.000    0.4994
   166.000    0.4984
   167.000    0.5014
   168.000    0.5053
   169.000    0.5087
   170.000    0.5113
   171.000    0.5137
   172.000    0.5165
   173.000    0.5208
   174.000    0.5281
   175.000    0.5390
   176.000    0.5523
   177.000    0.5645
   178.000    0.5716
   179.000    0.5698
   180.000    0.5581
   181.000    0.5384
   182.000    0.5148
   183.000    0.4920
   184.000    0.4742
   185.000    0.4645
   186.000    0.4639
   187.000    0.4721
   188.000    0.4875
   189.000    0.5077
   190.000    0.5298
   191.000    0.5508
   192.000    0.5682
   193.000    0.5801
   194.000    0.5861
   195.000    0.5874
   196.000    0.5860
   197.000    0.5846
   198.000    0.5855
   199.000    0.5909
   200.000    0.6022
   201.000    0.6203
   202.000    0.6452
   203.000    0.6752
   204.000    0.7068
   205.000    0.7359
   206.000    0.7602
   207.000    0.7798
   208.000    0.7944
   209.000    0.8022
   210.000    0.7998
   211.000    0.7853
   212.000    0.7596
   213.000    0.7258
   214.000    0.6875
   215.000    0.6473
   216.000    0.6072
   217.000    0.5692
   218.000    0.5351
   219.000    0.5068
   220.000    0.4857
   221.000    0.4719
   222.000    0.4647
   223.000    0.4624
   224.000    0.4629
   225.000    0.4646
   226.000    0.4663
   227.000    0.4678
   228.000    0.4701
   229.000    0.4750
   230.000    0.4854
   231.000    0.5046
   232.000    0.5367
   233.000    0.5850
   234.000    0.6517
   235.000    0.7359
   236.000    0.8306
   237.000    0.9197
   238.000    0.9806
   239.000    0.9959
   240.000    0.9659
   241.000    0.9093
   242.000    0.8495
   243.000    0.8033
   244.000    0.7765
   245.000    0.7660
   246.000    0.7646
   247.000    0.7649
   248.000    0.7621
   249.000    0.7544
   250.000    0.7430
   251.000    0.7304
   252.000    0.7170
   253.000    0.6996
   254.000    0.6737
   255.000    0.6366
   256.000    0.5898
   257.000    0.5377
   258.000    0.4858
   259.000    0.4387
   260.000    0.3997
   261.000    0.3700
   262.000    0.3499
   263.000    0.3387
   264.000    0.3364
   265.000    0.3429
   266.000    0.3587
   267.000    0.3849
   268.000    0.4226
   269.000    0.4731
   270.000    0.5358
   271.000    0.6073
   272.000    0.6792
   273.000    0.7392
   274.000    0.7749
   275.000    0.7790
   276.000    0.7527
   277.000    0.7036
   278.000    0.6410
   279.000    0.5725
   280.000    0.5040
   281.000    0.4404
   282.000    0.3849
   283.000    0.3388
   284.000    0.3018
   285.000    0.2728
   286.000    0.2505
   287.000    0.2337
   288.000    0.2215
   289.000    0.2132
   290.000    0.2082
   291.000    0.2065
   292.000    0.2078
   293.000    0.2123
   294.000    0.2203
   295.000    0.2320
   296.000    0.2480
   297.000    0.2686
   298.000    0.2937
   299.000    0.3225
   300.000    0.3539
   301.000    0.3860
   302.000    0.4170
   303.000    0.4454
   304.000    0.4710
   305.000    0.4949
   306.000    0.5193
   307.000    0.5468
   308.000    0.5783
   309.000    0.6118
   310.000    0.6414
   311.000    0.6607
   312.000    0.6658
   313.000    0.6568
   314.000    0.6363
   315.000    0.6076
   316.000    0.5745
   317.000    0.5415
   318.000    0.5137
   319.000    0.4951
   320.000    0.4886
   321.000    0.4953
   322.000    0.5156
   323.000    0.5496
   324.000    0.5973
   325.000    0.6591
   326.000    0.7353
   327.000    0.8262
   328.000    0.9318
   329.000    1.0506
   330.000    1.1790
   331.000    1.3093
   332.000    1.4271
   333.000    1.5093
   334.000    1.5304
   335.000    1.4785
   336.000    1.3681
   337.000    1.2325
   338.000    1.1039
   339.000    1.0021
   340.000    0.9346
   341.000    0.9011
   342.000    0.8952
   343.000    0.9044
   344.000    0.9100
   345.000    0.8939
   346.000    0.8493
   347.000    0.7848
   348.000    0.7161
   349.000    0.6553
   350.000    0.6080
   351.000    0.5754
   352.000    0.5564
   353.000    0.5494
   354.000    0.5530
   355.000    0.5666
   356.000    0.5905
   357.000    0.6261
   358.000    0.6744
   359.000    0.7354
   360.000    0.8054
   361.000    0.8746
   362.000    0.9274
   363.000    0.9474
   364.000    0.9259
   365.000    0.8669
   366.000    0.7843
   367.000    0.6937
   368.000    0.6063
   369.000    0.5280
   370.000    0.4609
   371.000    0.4049
   372.000    0.3589
   373.000    0.3213
   374.000    0.2908
   375.000    0.2660
   376.000    0.2460
   377.000    0.2301
   378.000    0.2177
   379.000    0.2083
   380.000    0.2019
   381.000    0.1981
   382.000    0.1971
   383.000    0.1990
   384.000    0.2041
   385.000    0.2128
   386.000    0.2257
   387.000    0.2437
   388.000    0.2680
   389.000    0.2996
   390.000    0.3395
   391.000    0.3872
   392.000    0.4398
   393.000    0.4905
   394.000    0.5307
   395.000    0.5528
   396.000    0.5543
   397.000    0.5367
   398.000    0.5041
   399.000    0.4618
   400.000    0.4158
   401.000    0.3720
   402.000    0.3343
   403.000    0.3043
   404.000    0.2817
   405.000    0.2657
   406.000    0.2554
   407.000    0.2496
   408.000    0.2478
   409.000    0.2492
   410.000    0.2535
   411.000    0.2604
   412.000    0.2694
   413.000    0.2802
   414.000    0.2923
   415.000    0.3052
   416.000    0.3183
   417.000    0.3316
   418.000    0.3451
   419.000    0.3592
   420.000    0.3747
   421.000    0.3923
   422.000    0.4133
   423.000    0.4393
   424.000    0.4723
   425.000    0.5151
   426.000    0.5710
   427.000    0.6423
   428.000    0.7295
   429.000    0.8288
   430.000    0.9311
   431.000    1.0235
   432.000    1.0947
   433.000    1.1394
   434.000    1.1613
   435.000    1.1685
   436.000    1.1667
   437.000    1.1528
   438.000    1.1170
   439.000    1.0503
   440.000    0.9525
   441.000    0.8350
   442.000    0.7146
   443.000    0.6044
   444.000    0.5106
   445.000    0.4337
   446.000    0.3719
   447.000    0.3224
   448.000    0.2827
   449.000    0.2505
   450.000    0.2243
   451.000    0.2028
   452.000    0.1850
   453.000    0.1701
   454.000    0.1576
   455.000    0.1470
   456.000    0.1381
   457.000    0.1305
   458.000    0.1240
   459.000    0.1184
   460.000    0.1137
   461.000    0.1098
   462.000    0.1064
   463.000    0.1037
   464.000    0.1014
   465.000    0.0997
   466.000    0.0984
   467.000    0.0975
   468.000    0.0971
   469.000    0.0971
   470.000    0.0975
   471.000    0.0984
   472.000    0.0997
   473.000    0.1016
   474.000    0.1041
   475.000    0.1072
   476.000    0.1110
   477.000    0.1157
   478.000    0.1214
   479.000    0.1283
   480.000    0.1368
   481.000    0.1470
   482.000    0.1596
   483.000    0.1751
   484.000    0.1943
   485.000    0.2182
   486.000    0.2482
   487.000    0.2855
   488.000    0.3314
   489.000    0.3859
   490.000    0.4470
   491.000    0.5092
   492.000    0.5648
   493.000    0.6078
   494.000    0.6361
   495.000    0.6510
   496.000    0.6546
   497.000    0.6470
   498.000    0.6267
   499.000    0.5917
   500.000    0.5426
   501.000    0.4844
   502.000    0.4249
   503.000    0.3706
   504.000    0.3248
   505.000    0.2879
   506.000    0.2592
   507.000    0.2372
   508.000    0.2206
   509.000    0.2085
   510.000    0.2000
   511.000    0.1945
   512.000    0.1916
   513.000    0.1909
   514.000    0.1924
   515.000    0.1960
   516.000    0.2017
   517.000    0.2097
   518.000    0.2201
   519.000    0.2333
   520.000    0.2497
   521.000    0.2701
   522.000    0.2952
   523.000    0.3263
   524.000    0.3649
   525.000    0.4126
   526.000    0.4715
   527.000    0.5433
   528.000    0.6282
   529.000    0.7241
   530.000    0.8264
   531.000    0.9309
   532.000    1.0374
   533.000    1.1474
   534.000    1.2563
   535.000    1.3492
   536.000    1.4084
   537.000    1.4234
   538.000    1.3940
   539.000    1.3259
   540.000    1.2292
   541.000    1.1197
   542.000    1.0155
   543.000    0.9309
   544.000    0.8730
   545.000    0.8441
   546.000    0.8444
   547.000    0.8746
   548.000    0.9361
   549.000    1.0314
   550.000    1.1624
   551.000    1.3273
   552.000    1.5159
   553.000    1.7079
   554.000    1.8793
   555.000    2.0153
   556.000    2.1081
   557.000    2.1412
   558.000    2.0906
   559.000    1.9489
   560.000    1.7401
   561.000    1.5059
   562.000    1.2827
   563.000    1.0903
   564.000    0.9344
   565.000    0.8130
   566.000    0.7215
   567.000    0.6550
   568.000    0.6097
   569.000    0.5830
   570.000    0.5726
   571.000    0.5761
   572.000    0.5904
   573.000    0.6108
   574.000    0.6328
   575.000    0.6528
   576.000    0.6692
   577.000    0.6825
   578.000    0.6935
   579.000    0.7022
   580.000    0.7065
   581.000    0.7019
   582.000    0.6825
   583.000    0.6447
   584.000    0.5900
   585.000    0.5254
   586.000    0.4595
   587.000    0.3993
   588.000    0.3477
   589.000    0.3054
   590.000    0.2712
   591.000    0.2437
   592.000    0.2217
   593.000    0.2041
   594.000    0.1898
   595.000    0.1784
   596.000    0.1692
   597.000    0.1619
   598.000    0.1562
   599.000    0.1520
   600.000    0.1490
   601.000    0.1473
   602.000    0.1467
   603.000    0.1474
   604.000    0.1492
   605.000    0.1523
   606.000    0.1570
   607.000    0.1632
   608.000    0.1715
   609.000    0.1821
   610.000    0.1956
   611.000    0.2127
   612.000    0.2343
   613.000    0.2618
   614.000    0.2965
   615.000    0.3402
   616.000    0.3947
   617.000    0.4604
   618.000    0.5359
   619.000    0.6157
   620.000    0.6907
   621.000    0.7504
   622.000    0.7848
   623.000    0.7872
   624.000    0.7563
   625.000    0.6990
   626.000    0.6279
   627.000    0.5567
   628.000    0.4949
   629.000    0.4470
   630.000    0.4139
   631.000    0.3950
   632.000    0.3898
   633.000    0.3980
   634.000    0.4203
   635.000    0.4578
   636.000    0.5121
   637.000    0.5833
   638.000    0.6681
   639.000    0.7553
   640.000    0.8239
   641.000    0.8496
   642.000    0.8200
   643.000    0.7445
   644.000    0.6468
   645.000    0.5484
   646.000    0.4612
   647.000    0.3890
   648.000    0.3309
   649.000    0.2848
   650.000    0.2482
   651.000    0.2190
   652.000    0.1956
   653.000    0.1766
   654.000    0.1612
   655.000    0.1485
   656.000    0.1380
   657.000    0.1293
   658.000    0.1221
   659.000    0.1161
   660.000    0.1111
   661.000    0.1070
   662.000    0.1036
   663.000    0.1010
   664.000    0.0989
   665.000    0.0975
   666.000    0.0965
   667.000    0.0960
   668.000    0.0961
   669.000    0.0966
   670.000    0.0977
   671.000    0.0992
   672.000    0.1014
   673.000    0.1042
   674.000    0.1076
   675.000    0.1119
   676.000    0.1171
   677.000    0.1234
   678.000    0.1310
   679.000    0.1402
   680.000    0.1513
   681.000    0.1648
   682.000    0.1814
   683.000    0.2017
   684.000    0.2270
   685.000    0.2586
   686.000    0.2981
   687.000    0.3475
   688.000    0.4080
   689.000    0.4794
   690.000    0.5570
   691.000    0.6293
   692.000    0.6797
   693.000    0.6965
   694.000    0.6829
   695.000    0.6558
   696.000    0.6335
   697.000    0.6287
   698.000    0.6473
   699.000    0.6908
   700.000    0.7558
   701.000    0.8313
   702.000    0.8962
   703.000    0.9241
   704.000    0.8989
   705.000    0.8279
   706.000    0.7349
   707.000    0.6430
   708.000    0.5659
   709.000    0.5084
   710.000    0.4705
   711.000    0.4500
   712.000    0.4431
   713.000    0.4432
   714.000    0.4410
   715.000    0.4271
   716.000    0.3980
   717.000    0.3577
   718.000    0.3139
   719.000    0.2729
   720.000    0.2376
   721.000    0.2084
   722.000    0.1848
   723.000    0.1657
   724.000    0.1503
   725.000    0.1377
   726.000    0.1274
   727.000    0.1189
   728.000    0.1118
   729.000    0.1060
   730.000    0.1011
   731.000    0.0970
   732.000    0.0935
   733.000    0.0907
   734.000    0.0884
   735.000    0.0865
   736.000    0.0850
   737.000    0.0839
   738.000    0.0832
   739.000    0.0827
   740.000    0.0826
   741.000    0.0827
   742.000    0.0831
   743.000    0.0839
   744.000    0.0849
   745.000    0.0862
   746.000    0.0879
   747.000    0.0899
   748.000    0.0923
   749.000    0.0951
   750.000    0.0984
   751.000    0.1023
   752.000    0.1067
   753.000    0.1118
   754.000    0.1177
   755.000    0.1246
   756.000    0.1327
   757.000    0.1421
   758.000    0.1531
   759.000    0.1663
   760.000    0.1820
   761.000    0.2009
   762.000    0.2239
   763.000    0.2521
   764.000    0.2869
   765.000    0.3298
   766.000    0.3824
   767.000    0.4452
   768.000    0.5168
   769.000    0.5920
   770.000    0.6621
   771.000    0.7188
   772.000    0.7578
   773.000    0.7808
   774.000    0.7923
   775.000    0.7976
   776.000    0.8020
   777.000    0.8116
   778.000    0.8319
   779.000    0.8662
   780.000    0.9151
   781.000    0.9791
   782.000    1.0577
   783.000    1.1462
   784.000    1.2320
   785.000    1.2948
   786.000    1.3142
   787.000    1.2832
   788.000    1.2142
   789.000    1.1282
   790.000    1.0422
   791.000    0.9653
   792.000    0.8994
   793.000    0.8411
   794.000    0.7847
   795.000    0.7251
   796.000    0.6595
   797.000    0.5887
   798.000    0.5165
   799.000    0.4485
   800.000    0.3887
   801.000    0.3384
   802.000    0.2971
   803.000    0.2635
   804.000    0.2362
   805.000    0.2139
   806.000    0.1955
   807.000    0.1803
   808.000    0.1677
   809.000    0.1571
   810.000    0.1482
   811.000    0.1407
   812.000    0.1343
   813.000    0.1289
   814.000    0.1244
   815.000    0.1207
   816.000    0.1175
   817.000    0.1150
   818.000    0.1130
   819.000    0.1114
   820.000    0.1104
   821.000    0.1097
   822.000    0.1094
   823.000    0.1095
   824.000    0.1100
   825.000    0.1109
   826.000    0.1122
   827.000    0.1139
   828.000    0.1159
   829.000    0.1185
   830.000    0.1215
   831.000    0.1250
   832.000    0.1291
   833.000    0.1338
   834.000    0.1392
   835.000    0.1455
   836.000    0.1526
   837.000    0.1607
   838.000    0.1701
   839.000    0.1809
   840.000    0.1934
   841.000    0.2079
   842.000    0.2249
   843.000    0.2448
   844.000    0.2683
   845.000    0.2964
   846.000    0.3302
   847.000    0.3711
   848.000    0.4211
   849.000    0.4825
   850.000    0.5580
   851.000    0.6505
   852.000    0.7619
   853.000    0.8921
   854.000    1.0391
   855.000    1.2002
   856.000    1.3749
   857.000    1.5633
   858.000    1.7604
   859.000    1.9467
   860.000    2.0831
   861.000    2.1224
   862.000    2.0402
   863.000    1.8552
   864.000    1.6161
   865.000    1.3717
   866.000    1.1522
   867.000    0.9690
   868.000    0.8219
   869.000    0.7060
   870.000    0.6153
   871.000    0.5446
   872.000    0.4894
   873.000    0.4466
   874.000    0.4137
   875.000    0.3888
   876.000    0.3706
   877.000    0.3582
   878.000    0.3510
   879.000    0.3487
   880.000    0.3512
   881.000    0.3585
   882.000    0.3711
   883.000    0.3895
   884.000    0.4148
   885.000    0.4483
   886.000    0.4917
   887.000    0.5473
   888.000    0.6178
   889.000    0.7052
   890.000    0.8102
   891.000    0.9298
   892.000    1.0558
   893.000    1.1766
   894.000    1.2821
   895.000    1.3688
   896.000    1.4418
   897.000    1.5146
   898.000    1.6022
   899.000    1.7094
   900.000    1.8198
   901.000    1.8964
   902.000    1.9001
   903.000    1.8146
   904.000    1.6576
   905.000    1.4683
   906.000    1.2844
   907.000    1.1287
   908.000    1.0092
   909.000    0.9263
   910.000    0.8773
   911.000    0.8599
   912.000    0.8721
   913.000    0.9118
   914.000    0.9741
   915.000    1.0474
   916.000    1.1117
   917.000    1.1432
   918.000    1.1289
   919.000    1.0754
   920.000    1.0041
   921.000    0.9375
   922.000    0.8908
   923.000    0.8715
   924.000    0.8827
   925.000    0.9246
   926.000    0.9944
   927.000    1.0828
   928.000    1.1709
   929.000    1.2331
   930.000    1.2521
   931.000    1.2341
   932.000    1.2042
   933.000    1.1859
   934.000    1.1871
   935.000    1.1967
   936.000    1.1889
   937.000    1.1395
   938.000    1.0451
   939.000    0.9239
   940.000    0.8000
   941.000    0.6887
   942.000    0.5960
   943.000    0.5216
   944.000    0.4631
   945.000    0.4175
   946.000    0.3825
   947.000    0.3560
   948.000    0.3365
   949.000    0.3230
   950.000    0.3149
   951.000    0.3119
   952.000    0.3138
   953.000    0.3211
   954.000    0.3342
   955.000    0.3542
   956.000    0.3825
   957.000    0.4209
   958.000    0.4717
   959.000    0.5371
   960.000    0.6179
   961.000    0.7108
   962.000    0.8047
   963.000    0.8787
   964.000    0.9093
   965.000    0.8851
   966.000    0.8164
   967.000    0.7261
   968.000    0.6356
   969.000    0.5567
   970.000    0.4932
   971.000    0.4447
   972.000    0.4092
   973.000    0.3845
   974.000    0.3690
   975.000    0.3613
   976.000    0.3607
   977.000    0.3667
   978.000    0.3794
   979.000    0.3994
   980.000    0.4275
   981.000    0.4652
   982.000    0.5146
   983.000    0.5785
   984.000    0.6608
   985.000    0.7662
   986.000    0.8998
   987.000    1.0655
   988.000    1.2617
   989.000    1.4739
   990.000    1.6678
   991.000    1.7936
   992.000    1.8146
   993.000    1.7382
   994.000    1.6111
   995.000    1.4849
   996.000    1.3915
   997.000    1.3397
   998.000    1.3197
   999.000    1.3062
  1000.000    1.2687
  1001.000    1.1892
  1002.000    1.0748
  1003.000    0.9480
  1004.000    0.8295
  1005.000    0.7299
  1006.000    0.6519
  1007.000    0.5943
  1008.000    0.5547
  1009.000    0.5312
  1010.000    0.5226
  1011.000    0.5285
  1012.000    0.5496
  1013.000    0.5873
  1014.000    0.6430
  1015.000    0.7171
  1016.000    0.8059
  1017.000    0.8972
  1018.000    0.9687
  1019.000    0.9947
  1020.000    0.9648
  1021.000    0.8926
  1022.000    0.8042
  1023.000    0.7213
  1024.000    0.6549
  1025.000    0.6085
  1026.000    0.5820
  1027.000    0.5745
  1028.000    0.5858
  1029.000    0.6166
  1030.000    0.6688
  1031.000    0.7455
  1032.000    0.8503
  1033.000    0.9855
  1034.000    1.1481
  1035.000    1.3236
  1036.000    1.4811
  1037.000    1.5786
  1038.000    1.5832
  1039.000    1.4909
  1040.000    1.3292
  1041.000    1.1397
  1042.000    0.9565
  1043.000    0.7970
  1044.000    0.6658
  1045.000    0.5604
  1046.000    0.4766
  1047.000    0.4098
  1048.000    0.3561
  1049.000    0.3127
  1050.000    0.2773
  1051.000    0.2480
  1052.000    0.2235
  1053.000    0.2030
  1054.000    0.1856
  1055.000    0.1706
  1056.000    0.1578
  1057.000    0.1466
  1058.000    0.1368
  1059.000    0.1283
  1060.000    0.1207
  1061.000    0.1140
  1062.000    0.1080
  1063.000    0.1027
  1064.000    0.0979
  1065.000    0.0935
  1066.000    0.0896
  1067.000    0.0861
  1068.000    0.0828
  1069.000    0.0799
  1070.000    0.0772
  1071.000    0.0748
  1072.000    0.0726
  1073.000    0.0705
  1074.000    0.0686
  1075.000    0.0669
  1076.000    0.0654
  1077.000    0.0639
  1078.000    0.0626
  1079.000    0.0614
  1080.000    0.0603
  1081.000    0.0593
  1082.000    0.0584
  1083.000    0.0576
  1084.000    0.0568
  1085.000    0.0562
  1086.000    0.0556
  1087.000    0.0551
  1088.000    0.0546
  1089.000    0.0542
  1090.000    0.0539
  1091.000    0.0537
  1092.000    0.0535
  1093.000    0.0534
  1094.000    0.0533
  1095.000    0.0534
  1096.000    0.0534
  1097.000    0.0536
  1098.000    0.0538
  1099.000    0.0540
  1100.000    0.0544
  1101.000    0.0548
  1102.000    0.0553
  1103.000    0.0559
  1104.000    0.0565
  1105.000    0.0573
  1106.000    0.0582
  1107.000    0.0591
  1108.000    0.0602
  1109.000    0.0614
  1110.000    0.0627
  1111.000    0.0642
  1112.000    0.0658
  1113.000    0.0676
  1114.000    0.0696
  1115.000    0.0719
  1116.000    0.0743
  1117.000    0.0771
  1118.000    0.0802
  1119.000    0.0837
  1120.000    0.0877
  1121.000    0.0921
  1122.000    0.0971
  1123.000    0.1029
  1124.000    0.1095
  1125.000    0.1171
  1126.000    0.1259
  1127.000    0.1363
  1128.000    0.1485
  1129.000    0.1631
  1130.000    0.1807
  1131.000    0.2020
  1132.000    0.2282
  1133.000    0.2607
  1134.000    0.3013
  1135.000    0.3522
  1136.000    0.4161
  1137.000    0.4949
  1138.000    0.5883
  1139.000    0.6900
  1140.000    0.7838
  1141.000    0.8445
  1142.000    0.8504
  1143.000    0.8010
  1144.000    0.7174
  1145.000    0.6252
  1146.000    0.5412
  1147.000    0.4723
  1148.000    0.4192
  1149.000    0.3802
  1150.000    0.3530
  1151.000    0.3358
  1152.000    0.3271
  1153.000    0.3260
  1154.000    0.3322
  1155.000    0.3458
  1156.000    0.3674
  1157.000    0.3982
  1158.000    0.4399
  1159.000    0.4948
  1160.000    0.5653
  1161.000    0.6532
  1162.000    0.7572
  1163.000    0.8694
  1164.000    0.9715
  1165.000    1.0384
  1166.000    1.0533
  1167.000    1.0227
  1168.000    0.9717
  1169.000    0.9266
  1170.000    0.9044
  1171.000    0.9134
  1172.000    0.9571
  1173.000    1.0356
  1174.000    1.1448
  1175.000    1.2727
  1176.000    1.3971
  1177.000    1.4940
  1178.000    1.5523
  1179.000    1.5788
  1180.000    1.5811
  1181.000    1.5543
  1182.000    1.4918
  1183.000    1.4032
  1184.000    1.3135
  1185.000    1.2474
  1186.000    1.2190
  1187.000    1.2310
  1188.000    1.2754
  1189.000    1.3326
  1190.000    1.3754
  1191.000    1.3839
  1192.000    1.3610
  1193.000    1.3280
  1194.000    1.3034
  1195.000    1.2872
  1196.000    1.2601
  1197.000    1.1979
  1198.000    1.0932
  1199.000    0.9606
  1200.000    0.8235
  1201.000    0.6987
  1202.000    0.5930
  1203.000    0.5065
  1204.000    0.4368
  1205.000    0.3807
  1206.000    0.3353
  1207.000    0.2984
  1208.000    0.2681
  1209.000    0.2430
  1210.000    0.2220
  1211.000    0.2044
  1212.000    0.1894
  1213.000    0.1767
  1214.000    0.1659
  1215.000    0.1567
  1216.000    0.1488
  1217.000    0.1420
  1218.000    0.1364
  1219.000    0.1316
  1220.000    0.1277
  1221.000    0.1245
  1222.000    0.1222
  1223.000    0.1205
  1224.000    0.1196
  1225.000    0.1194
  1226.000    0.1199
  1227.000    0.1213
  1228.000    0.1236
  1229.000    0.1270
  1230.000    0.1315
  1231.000    0.1374
  1232.000    0.1450
  1233.000    0.1546
  1234.000    0.1667
  1235.000    0.1820
  1236.000    0.2013
  1237.000    0.2258
  1238.000    0.2568
  1239.000    0.2965
  1240.000    0.3471
  1241.000    0.4111
  1242.000    0.4900
  1243.000    0.5825
  1244.000    0.6799
  1245.000    0.7633
  1246.000    0.8066
  1247.000    0.7923
  1248.000    0.7261
  1249.000    0.6319
  1250.000    0.5338
  1251.000    0.4458
  1252.000    0.3725
  1253.000    0.3137
  1254.000    0.2670
  1255.000    0.2302
  1256.000    0.2009
  1257.000    0.1775
  1258.000    0.1586
  1259.000    0.1432
  1260.000    0.1305
  1261.000    0.1201
  1262.000    0.1114
  1263.000    0.1041
  1264.000    0.0979
  1265.000    0.0927
  1266.000    0.0883
  1267.000    0.0846
  1268.000    0.0814
  1269.000    0.0788
  1270.000    0.0766
  1271.000    0.0747
  1272.000    0.0732
  1273.000    0.0721
  1274.000    0.0712
  1275.000    0.0706
  1276.000    0.0703
  1277.000    0.0702
  1278.000    0.0704
  1279.000    0.0708
  1280.000    0.0715
  1281.000    0.0724
  1282.000    0.0737
  1283.000    0.0752
  1284.000    0.0771
  1285.000    0.0793
  1286.000    0.0820
  1287.000    0.0850
  1288.000    0.0887
  1289.000    0.0929
  1290.000    0.0978
  1291.000    0.1035
  1292.000    0.1102
  1293.000    0.1180
  1294.000    0.1273
  1295.000    0.1384
  1296.000    0.1516
  1297.000    0.1676
  1298.000    0.1870
  1299.000    0.2108
  1300.000    0.2403
  1301.000    0.2770
  1302.000    0.3229
  1303.000    0.3799
  1304.000    0.4495
  1305.000    0.5310
  1306.000    0.6191
  1307.000    0.7030
  1308.000    0.7680
  1309.000    0.8027
  1310.000    0.8049
  1311.000    0.7816
  1312.000    0.7443
  1313.000    0.7043
  1314.000    0.6707
  1315.000    0.6499
  1316.000    0.6457
  1317.000    0.6587
  1318.000    0.6852
  1319.000    0.7160
  1320.000    0.7380
  1321.000    0.7394
  1322.000    0.7161
  1323.000    0.6737
  1324.000    0.6243
  1325.000    0.5781
  1326.000    0.5392
  1327.000    0.5065
  1328.000    0.4761
  1329.000    0.4443
  1330.000    0.4090
  1331.000    0.3702
  1332.000    0.3299
  1333.000    0.2909
  1334.000    0.2553
  1335.000    0.2246
  1336.000    0.1990
  1337.000    0.1780
  1338.000    0.1610
  1339.000    0.1472
  1340.000    0.1360
  1341.000    0.1269
  1342.000    0.1194
  1343.000    0.1133
  1344.000    0.1084
  1345.000    0.1045
  1346.000    0.1013
  1347.000    0.0989
  1348.000    0.0971
  1349.000    0.0960
  1350.000    0.0953
  1351.000    0.0953
  1352.000    0.0957
  1353.000    0.0967
  1354.000    0.0982
  1355.000    0.1004
  1356.000    0.1032
  1357.000    0.1067
  1358.000    0.1110
  1359.000    0.1162
  1360.000    0.1226
  1361.000    0.1303
  1362.000    0.1396
  1363.000    0.1508
  1364.000    0.1645
  1365.000    0.1813
  1366.000    0.2021
  1367.000    0.2279
  1368.000    0.2602
  1369.000    0.3008
  1370.000    0.3519
  1371.000    0.4151
  1372.000    0.4909
  1373.000    0.5760
  1374.000    0.6608
  1375.000    0.7291
  1376.000    0.7652
  1377.000    0.7628
  1378.000    0.7280
  1379.000    0.6723
  1380.000    0.6061
  1381.000    0.5374
  1382.000    0.4721
  1383.000    0.4146
  1384.000    0.3671
  1385.000    0.3297
  1386.000    0.3017
  1387.000    0.2817
  1388.000    0.2686
  1389.000    0.2614
  1390.000    0.2597
  1391.000    0.2630
  1392.000    0.2714
  1393.000    0.2853
  1394.000    0.3054
  1395.000    0.3329
  1396.000    0.3694
  1397.000    0.4169
  1398.000    0.4779
  1399.000    0.5545
  1400.000    0.6470
  1401.000    0.7504
  1402.000    0.8503
  1403.000    0.9226
  1404.000    0.9438
  1405.000    0.9095
  1406.000    0.8386
  1407.000    0.7574
  1408.000    0.6851
  1409.000    0.6304
  1410.000    0.5957
  1411.000    0.5804
  1412.000    0.5837
  1413.000    0.6054
  1414.000    0.6466
  1415.000    0.7095
  1416.000    0.7975
  1417.000    0.9154
  1418.000    1.0677
  1419.000    1.2560
  1420.000    1.4737
  1421.000    1.6989
  1422.000    1.8929
  1423.000    2.0148
  1424.000    2.0451
  1425.000    1.9964
  1426.000    1.8964
  1427.000    1.7643
  1428.000    1.6075
  1429.000    1.4329
  1430.000    1.2531
  1431.000    1.0825
  1432.000    0.9322
  1433.000    0.8074
  1434.000    0.7085
  1435.000    0.6332
  1436.000    0.5786
  1437.000    0.5419
  1438.000    0.5215
  1439.000    0.5166
  1440.000    0.5274
  1441.000    0.5549
  1442.000    0.6004
  1443.000    0.6644
  1444.000    0.7436
  1445.000    0.8271
  1446.000    0.8933
  1447.000    0.9158
  1448.000    0.8811
  1449.000    0.7997
  1450.000    0.6969
  1451.000    0.5949
  1452.000    0.5054
  1453.000    0.4317
  1454.000    0.3726
  1455.000    0.3258
  1456.000    0.2889
  1457.000    0.2598
  1458.000    0.2368
  1459.000    0.2187
  1460.000    0.2045
  1461.000    0.1937
  1462.000    0.1856
  1463.000    0.1801
  1464.000    0.1769
  1465.000    0.1760
  1466.000    0.1774
  1467.000    0.1812
  1468.000    0.1878
  1469.000    0.1975
  1470.000    0.2110
  1471.000    0.2291
  1472.000    0.2531
  1473.000    0.2845
  1474.000    0.3254
  1475.000    0.3781
  1476.000    0.4449
  1477.000    0.5267
  1478.000    0.6204
  1479.000    0.7143
  1480.000    0.7867
  1481.000    0.8127
  1482.000    0.7812
  1483.000    0.7043
  1484.000    0.6069
  1485.000    0.5106
  1486.000    0.4261
  1487.000    0.3566
  1488.000    0.3009
  1489.000    0.2567
  1490.000    0.2216
  1491.000    0.1937
  1492.000    0.1712
  1493.000    0.1529
  1494.000    0.1380
  1495.000    0.1256
  1496.000    0.1153
  1497.000    0.1066
  1498.000    0.0993
  1499.000    0.0931
  1500.000    0.0878
  1501.000    0.0833
  1502.000    0.0795
  1503.000    0.0762
  1504.000    0.0734
  1505.000    0.0710
  1506.000    0.0691
  1507.000    0.0674
  1508.000    0.0661
  1509.000    0.0651
  1510.000    0.0644
  1511.000    0.0640
  1512.000    0.0639
  1513.000    0.0640
  1514.000    0.0645
  1515.000    0.0652
  1516.000    0.0663
  1517.000    0.0677
  1518.000    0.0695
  1519.000    0.0718
  1520.000    0.0746
  1521.000    0.0779
  1522.000    0.0820
  1523.000    0.0868
  1524.000    0.0927
  1525.000    0.0997
  1526.000    0.1081
  1527.000    0.1183
  1528.000    0.1307
  1529.000    0.1460
  1530.000    0.1649
  1531.000    0.1884
  1532.000    0.2179
  1533.000    0.2552
  1534.000    0.3026
  1535.000    0.3624
  1536.000    0.4369
  1537.000    0.5258
  1538.000    0.6238
  1539.000    0.7154
  1540.000    0.7757
  1541.000    0.7821
  1542.000    0.7317
  1543.000    0.6443
  1544.000    0.5457
  1545.000    0.4536
  1546.000    0.3754
  1547.000    0.3121
  1548.000    0.2618
  1549.000    0.2221
  1550.000    0.1906
  1551.000    0.1655
  1552.000    0.1453
  1553.000    0.1289
  1554.000    0.1154
  1555.000    0.1043
  1556.000    0.0950
  1557.000    0.0872
  1558.000    0.0806
  1559.000    0.0750
  1560.000    0.0702
  1561.000    0.0660
  1562.000    0.0625
  1563.000    0.0594
  1564.000    0.0568
  1565.000    0.0545
  1566.000    0.0525
  1567.000    0.0508
  1568.000    0.0493
  1569.000    0.0481
  1570.000    0.0470
  1571.000    0.0462
  1572.000    0.0455
  1573.000    0.0449
  1574.000    0.0445
  1575.000    0.0443
  1576.000    0.0442
  1577.000    0.0442
  1578.000    0.0443
  1579.000    0.0446
  1580.000    0.0450
  1581.000    0.0456
  1582.000    0.0463
  1583.000    0.0471
  1584.000    0.0482
  1585.000    0.0494
  1586.000    0.0508
  1587.000    0.0524
  1588.000    0.0542
  1589.000    0.0563
  1590.000    0.0587
  1591.000    0.0614
  1592.000    0.0646
  1593.000    0.0681
  1594.000    0.0722
  1595.000    0.0768
  1596.000    0.0822
  1597.000    0.0884
  1598.000    0.0956
  1599.000    0.1040
  1600.000    0.1138
  1601.000    0.1255
  1602.000    0.1394
  1603.000    0.1561
  1604.000    0.1765
  1605.000    0.2014
  1606.000    0.2322
  1607.000    0.2706
  1608.000    0.3188
  1609.000    0.3794
  1610.000    0.4547
  1611.000    0.5458
  1612.000    0.6495
  1613.000    0.7538
  1614.000    0.8365
  1615.000    0.8726
  1616.000    0.8527
  1617.000    0.7915
  1618.000    0.7160
  1619.000    0.6484
  1620.000    0.6004
  1621.000    0.5766
  1622.000    0.5781
  1623.000    0.6048
  1624.000    0.6554
  1625.000    0.7246
  1626.000    0.7995
  1627.000    0.8566
  1628.000    0.8695
  1629.000    0.8262
  1630.000    0.7390
  1631.000    0.6335
  1632.000    0.5308
  1633.000    0.4414
  1634.000    0.3677
  1635.000    0.3086
  1636.000    0.2615
  1637.000    0.2239
  1638.000    0.1936
  1639.000    0.1691
  1640.000    0.1489
  1641.000    0.1323
  1642.000    0.1184
  1643.000    0.1066
  1644.000    0.0966
  1645.000    0.0881
  1646.000    0.0807
  1647.000    0.0742
  1648.000    0.0686
  1649.000    0.0636
  1650.000    0.0592
  1651.000    0.0553
  1652.000    0.0518
  1653.000    0.0487
  1654.000    0.0458
  1655.000    0.0433
  1656.000    0.0410
  1657.000    0.0388
  1658.000    0.0369
  1659.000    0.0351
  1660.000    0.0335
  1661.000    0.0320
  1662.000    0.0306
  1663.000    0.0293
  1664.000    0.0281
  1665.000    0.0270
  1666.000    0.0260
  1667.000    0.0250
  1668.000    0.0241
  1669.000    0.0233
  1670.000    0.0225
  1671.000    0.0217
  1672.000    0.0210
  1673.000    0.0203
  1674.000    0.0197
  1675.000    0.0191
  1676.000    0.0186
  1677.000    0.0180
  1678.000    0.0175
  1679.000    0.0171
  1680.000    0.0166
  1681.000    0.0162
  1682.000    0.0158
  1683.000    0.0154
  1684.000    0.0150
  1685.000    0.0147
  1686.000    0.0143
  1687.000    0.0140
  1688.000    0.0137
  1689.000    0.0134
  1690.000    0.0131
  1691.000    0.0128
  1692.000    0.0126
  1693.000    0.0123
  1694.000    0.0121
  1695.000    0.0118
  1696.000    0.0116
  1697.000    0.0114
  1698.000    0.0112
  1699.000    0.0110
  1700.000    0.0108
  1701.000    0.0106
  1702.000    0.0104
  1703.000    0.0102
  1704.000    0.0101
  1705.000    0.0099
  1706.000    0.0097
  1707.000    0.0096
  1708.000    0.0094
  1709.000    0.0093
  1710.000    0.0091
  1711.000    0.0090
  1712.000    0.0089
  1713.000    0.0087
  1714.000    0.0086
  1715.000    0.0085
  1716.000    0.0084
  1717.000    0.0083
  1718.000    0.0082
  1719.000    0.0081
  1720.000    0.0079
  1721.000    0.0078
  1722.000    0.0077
  1723.000    0.0076
  1724.000    0.0075
  1725.000    0.0075
  1726.000    0.0074
  1727.000    0.0073
  1728.000    0.0072
  1729.000    0.0071
  1730.000    0.0070
  1731.000    0.0069
  1732.000    0.0069
  1733.000    0.0068
  1734.000    0.0067
  1735.000    0.0066
  1736.000    0.0066
  1737.000    0.0065
  1738.000    0.0064
  1739.000    0.0064
  1740.000    0.0063
  1741.000    0.0062
  1742.000    0.0062
  1743.000    0.0061
  1744.000    0.0061
  1745.000    0.0060
  1746.000    0.0059
  1747.000    0.0059
  1748.000    0.0058
  1749.000    0.0058
  1750.000    0.0057
  1751.000    0.0057
  1752.000    0.0056
  1753.000    0.0056
  1754.000    0.0055
  1755.000    0.0055
  1756.000    0.0054
  1757.000    0.0054
  1758.000    0.0053
  1759.000    0.0053
  1760.000    0.0052
  1761.000    0.0052
  1762.000    0.0051
  1763.000    0.0051
  1764.000    0.0051
  1765.000    0.0050
  1766.000    0.0050
  1767.000    0.0049
  1768.000    0.0049
  1769.000    0.0049
  1770.000    0.0048
  1771.000    0.0048
  1772.000    0.0047
  1773.000    0.0047
  1774.000    0.0047
  1775.000    0.0046
  1776.000    0.0046
  1777.000    0.0046
  1778.000    0.0045
  1779.000    0.0045
  1780.000    0.0045
  1781.000    0.0044
  1782.000    0.0044
  1783.000    0.0044
  1784.000    0.0044
  1785.000    0.0043
  1786.000    0.0043
  1787.000    0.0043
  1788.000    0.0042
  1789.000    0.0042
  1790.000    0.0042
  1791.000    0.0042
  1792.000    0.0041
  1793.000    0.0041
  1794.000    0.0041
  1795.000    0.0040
  1796.000    0.0040
  1797.000    0.0040
  1798.000    0.0040
  1799.000    0.0039
  1800.000    0.0039
  1801.000    0.0039
  1802.000    0.0039
  1803.000    0.0038
  1804.000    0.0038
  1805.000    0.0038
  1806.000    0.0038
  1807.000    0.0038
  1808.000    0.0037
  1809.000    0.0037
  1810.000    0.0037
  1811.000    0.0037
  1812.000    0.0036
  1813.000    0.0036
  1814.000    0.0036
  1815.000    0.0036
  1816.000    0.0036
  1817.000    0.0035
  1818.000    0.0035
  1819.000    0.0035
  1820.000    0.0035
  1821.000    0.0035
  1822.000    0.0035
  1823.000    0.0034
  1824.000    0.0034
  1825.000    0.0034
  1826.000    0.0034
  1827.000    0.0034
  1828.000    0.0033
  1829.000    0.0033
  1830.000    0.0033
  1831.000    0.0033
  1832.000    0.0033
  1833.000    0.0033
  1834.000    0.0032
  1835.000    0.0032
  1836.000    0.0032
  1837.000    0.0032
  1838.000    0.0032
  1839.000    0.0032
  1840.000    0.0031
  1841.000    0.0031
  1842.000    0.0031
  1843.000    0.0031
  1844.000    0.0031
  1845.000    0.0031
  1846.000    0.0031
  1847.000    0.0030
  1848.000    0.0030
  1849.000    0.0030
  1850.000    0.0030
  1851.000    0.0030
  1852.000    0.0030
  1853.000    0.0030
  1854.000    0.0029
  1855.000    0.0029
  1856.000    0.0029
  1857.000    0.0029
  1858.000    0.0029
  1859.000    0.0029
  1860.000    0.0029
  1861.000    0.0029
  1862.000    0.0028
  1863.000    0.0028
  1864.000    0.0028
  1865.000    0.0028
  1866.000    0.0028
  1867.000    0.0028
  1868.000    0.0028
  1869.000    0.0028
  1870.000    0.0027
  1871.000    0.0027
  1872.000    0.0027
  1873.000    0.0027
  1874.000    0.0027
  1875.000    0.0027
  1876.000    0.0027
  1877.000    0.0027
  1878.000    0.0027
  1879.000    0.0026
  1880.000    0.0026
  1881.000    0.0026
  1882.000    0.0026
  1883.000    0.0026
  1884.000    0.0026
  1885.000    0.0026
  1886.000    0.0026
  1887.000    0.0026
  1888.000    0.0026
  1889.000    0.0025
  1890.000    0.0025
  1891.000    0.0025
  1892.000    0.0025
  1893.000    0.0025
  1894.000    0.0025
  1895.000    0.0025
  1896.000    0.0025
  1897.000    0.0025
  1898.000    0.0025
  1899.000    0.0025
  1900.000    0.0024
  1901.000    0.0024
  1902.000    0.0024
  1903.000    0.0024
  1904.000    0.0024
  1905.000    0.0024
  1906.000    0.0024
  1907.000    0.0024
  1908.000    0.0024
  1909.000    0.0024
  1910.000    0.0024
  1911.000    0.0023
  1912.000    0.0023
  1913.000    0.0023
  1914.000    0.0023
  1915.000    0.0023
  1916.000    0.0023
  1917.000    0.0023
  1918.000    0.0023
  1919.000    0.0023
  1920.000    0.0023
  1921.000    0.0023
  1922.000    0.0023
  1923.000    0.0023
  1924.000    0.0022
  1925.000    0.0022
  1926.000    0.0022
  1927.000    0.0022
  1928.000    0.0022
  1929.000    0.0022
  1930.000    0.0022
  1931.000    0.0022
  1932.000    0.0022
  1933.000    0.0022
  1934.000    0.0022
  1935.000    0.0022
  1936.000    0.0022
  1937.000    0.0022
  1938.000    0.0021
  1939.000    0.0021
  1940.000    0.0021
  1941.000    0.0021
  1942.000    0.0021
  1943.000    0.0021
  1944.000    0.0021
  1945.000    0.0021
  1946.000    0.0021
  1947.000    0.0021
  1948.000    0.0021
  1949.000    0.0021
  1950.000    0.0021
  1951.000    0.0021
  1952.000    0.0021
  1953.000    0.0020
  1954.000    0.0020
  1955.000    0.0020
  1956.000    0.0020
  1957.000    0.0020
  1958.000    0.0020
  1959.000    0.0020
  1960.000    0.0020
  1961.000    0.0020
  1962.000    0.0020
  1963.000    0.0020
  1964.000    0.0020
  1965.000    0.0020
  1966.000    0.0020
  1967.000    0.0020
  1968.000    0.0020
  1969.000    0.0020
  1970.000    0.0019
  1971.000    0.0019
  1972.000    0.0019
  1973.000    0.0019
  1974.000    0.0019
  1975.000    0.0019
  1976.000    0.0019
  1977.000    0.0019
  1978.000    0.0019
  1979.000    0.0019
  1980.000    0.0019
  1981.000    0.0019
  1982.000    0.0019
  1983.000    0.0019
  1984.000    0.0019
  1985.000    0.0019
  1986.000    0.0019
  1987.000    0.0019
  1988.000    0.0019
  1989.000    0.0019
  1990.000    0.0018
  1991.000    0.0018
  1992.000    0.0018
  1993.000    0.0018
  1994.000    0.0018
  1995.000    0.0018
  1996.000    0.0018
  1997.000    0.0018
  1998.000    0.0018
  1999.000    0.0018
  2000.000    0.0018
  2001.000    0.0018
  2002.000    0.0018
  2003.000    0.0018
  2004.000    0.0018
  2005.000    0.0018
  2006.000    0.0018
  2007.000    0.0018
  2008.000    0.0018
  2009.000    0.0018
  2010.000    0.0018
  2011.000    0.0018
  2012.000    0.0017
  2013.000    0.0017
  2014.000    0.0017
  2015.000    0.0017
  2016.000    0.0017
  2017.000    0.0017
  2018.000    0.0017
  2019.000    0.0017
  2020.000    0.0017
  2021.000    0.0017
  2022.000    0.0017
  2023.000    0.0017
  2024.000    0.0017
  2025.000    0.0017
  2026.000    0.0017
  2027.000    0.0017
  2028.000    0.0017
  2029.000    0.0017
  2030.000    0.0017
  2031.000    0.0017
  2032.000    0.0017
  2033.000    0.0017
  2034.000    0.0017
  2035.000    0.0017
  2036.000    0.0017
  2037.000    0.0016
  2038.000    0.0016
  2039.000    0.0016
  2040.000    0.0016
  2041.000    0.0016
  2042.000    0.0016
  2043.000    0.0016
  2044.000    0.0016
  2045.000    0.0016
  2046.000    0.0016
  2047.000    0.0016
  2048.000    0.0016
  2049.000    0.0016
  2050.000    0.0016
  2051.000    0.0016
  2052.000    0.0016
  2053.000    0.0016
  2054.000    0.0016
  2055.000    0.0016
  2056.000    0.0016
  2057.000    0.0016
  2058.000    0.0016
  2059.000    0.0016
  2060.000    0.0016
  2061.000    0.0016
  2062.000    0.0016
  2063.000    0.0016
  2064.000    0.0016
  2065.000    0.0016
  2066.000    0.0016
  2067.000    0.0015
  2068.000    0.0015
  2069.000    0.0015
  2070.000    0.0015
  2071.000    0.0015
  2072.000    0.0015
  2073.000    0.0015
  2074.000    0.0015
  2075.000    0.0015
  2076.000    0.0015
  2077.000    0.0015
  2078.000    0.0015
  2079.000    0.0015
  2080.000    0.0015
  2081.000    0.0015
  2082.000    0.0015
  2083.000    0.0015
  2084.000    0.0015
  2085.000    0.0015
  2086.000    0.0015
  2087.000    0.0015
  2088.000    0.0015
  2089.000    0.0015
  2090.000    0.0015
  2091.000    0.0015
  2092.000    0.0015
  2093.000    0.0015
  2094.000    0.0015
  2095.000    0.0015
  2096.000    0.0015
  2097.000    0.0015
  2098.000    0.0015
  2099.000    0.0015
  2100.000    0.0015
  2101.000    0.0015
  2102.000    0.0015
  2103.000    0.0014
  2104.000    0.0014
  2105.000    0.0014
  2106.000    0.0014
  2107.000    0.0014
  2108.000    0.0014
  2109.000    0.0014
  2110.000    0.0014
  2111.000    0.0014
  2112.000    0.0014
  2113.000    0.0014
  2114.000    0.0014
  2115.000    0.0014
  2116.000    0.0014
  2117.000    0.0014
  2118.000    0.0014
  2119.000    0.0014
  2120.000    0.0014
  2121.000    0.0014
  2122.000    0.0014
  2123.000    0.0014
  2124.000    0.0014
  2125.000    0.0014
  2126.000    0.0014
  2127.000    0.0014
  2128.000    0.0014
  2129.000    0.0014
  2130.000    0.0014
  2131.000    0.0014
  2132.000    0.0014
  2133.000    0.0014
  2134.000    0.0014
  2135.000    0.0014
  2136.000    0.0014
  2137.000    0.0014
  2138.000    0.0014
  2139.000    0.0014
  2140.000    0.0014
  2141.000    0.0014
  2142.000    0.0014
  2143.000    0.0014
  2144.000    0.0014
  2145.000    0.0014
  2146.000    0.0014
  2147.000    0.0014
  2148.000    0.0013
  2149.000    0.0013
  2150.000    0.0013
  2151.000    0.0013
  2152.000    0.0013
  2153.000    0.0013
  2154.000    0.0013
  2155.000    0.0013
  2156.000    0.0013
  2157.000    0.0013
  2158.000    0.0013
  2159.000    0.0013
  2160.000    0.0013
  2161.000    0.0013
  2162.000    0.0013
  2163.000    0.0013
  2164.000    0.0013
  2165.000    0.0013
  2166.000    0.0013
  2167.000    0.0013
  2168.000    0.0013
  2169.000    0.0013
  2170.000    0.0013
  2171.000    0.0013
  2172.000    0.0013
  2173.000    0.0013
  2174.000    0.0013
  2175.000    0.0013
  2176.000    0.0013
  2177.000    0.0013
  2178.000    0.0013
  2179.000    0.0013
  2180.000    0.0013
  2181.000    0.0013
  2182.000    0.0013
  2183.000    0.0013
  2184.000    0.0013
  2185.000    0.0013
  2186.000    0.0013
  2187.000    0.0013
  2188.000    0.0013
  2189.000    0.0013
  2190.000    0.0013
  2191.000    0.0013
  2192.000    0.0013
  2193.000    0.0013
  2194.000    0.0013
  2195.000    0.0013
  2196.000    0.0013
  2197.000    0.0013
  2198.000    0.0013
  2199.000    0.0013
  2200.000    0.0013
  2201.000    0.0013
  2202.000    0.0013
  2203.000    0.0013
  2204.000    0.0013
  2205.000    0.0013
  2206.000    0.0013
  2207.000    0.0013
  2208.000    0.0013
  2209.000    0.0013
  2210.000    0.0013
  2211.000    0.0013
  2212.000    0.0013
  2213.000    0.0012
  2214.000    0.0012
  2215.000    0.0012
  2216.000    0.0012
  2217.000    0.0012
  2218.000    0.0012
  2219.000    0.0012
  2220.000    0.0012
  2221.000    0.0012
  2222.000    0.0012
  2223.000    0.0012
  2224.000    0.0012
  2225.000    0.0012
  2226.000    0.0012
  2227.000    0.0012
  2228.000    0.0012
  2229.000    0.0012
  2230.000    0.0012
  2231.000    0.0012
  2232.000    0.0012
  2233.000    0.0012
  2234.000    0.0012
  2235.000    0.0012
  2236.000    0.0012
  2237.000    0.0012
  2238.000    0.0012
  2239.000    0.0012
  2240.000    0.0012
  2241.000    0.0012
  2242.000    0.0012
  2243.000    0.0012
  2244.000    0.0012
  2245.000    0.0012
  2246.000    0.0012
  2247.000    0.0012
  2248.000    0.0012
  2249.000    0.0012
  2250.000    0.0012
  2251.000    0.0012
  2252.000    0.0012
  2253.000    0.0012
  2254.000    0.0012
  2255.000    0.0012
  2256.000    0.0012
  2257.000    0.0012
  2258.000    0.0012
  2259.000    0.0012
  2260.000    0.0012
  2261.000    0.0012
  2262.000    0.0012
  2263.000    0.0012
  2264.000    0.0012
  2265.000    0.0012
  2266.000    0.0012
  2267.000    0.0012
  2268.000    0.0012
  2269.000    0.0012
  2270.000    0.0012
  2271.000    0.0012
  2272.000    0.0012
  2273.000    0.0012
  2274.000    0.0012
  2275.000    0.0012
  2276.000    0.0012
  2277.000    0.0012
  2278.000    0.0012
  2279.000    0.0012
  2280.000    0.0012
  2281.000    0.0012
  2282.000    0.0012
  2283.000    0.0012
  2284.000    0.0012
  2285.000    0.0012
  2286.000    0.0012
  2287.000    0.0012
  2288.000    0.0012
  2289.000    0.0012
  2290.000    0.0012
  2291.000    0.0012
  2292.000    0.0012
  2293.000    0.0012
  2294.000    0.0012
  2295.000    0.0012
  2296.000    0.0012
  2297.000    0.0012
  2298.000    0.0012
  2299.000    0.0012
  2300.000    0.0012
  2301.000    0.0012
  2302.000    0.0012
  2303.000    0.0012
  2304.000    0.0012
  2305.000    0.0012
  2306.000    0.0012
  2307.000    0.0012
  2308.000    0.0012
  2309.000    0.0012
  2310.000    0.0012
  2311.000    0.0012
  2312.000    0.0012
  2313.000    0.0012
  2314.000    0.0012
  2315.000    0.0012
  2316.000    0.0012
  2317.000    0.0012
  2318.000    0.0012
  2319.000    0.0012
  2320.000    0.0012
  2321.000    0.0012
  2322.000    0.0012
  2323.000    0.0012
  2324.000    0.0012
  2325.000    0.0012
  2326.000    0.0012
  2327.000    0.0012
  2328.000    0.0012
  2329.000    0.0012
  2330.000    0.0012
  2331.000    0.0012
  2332.000    0.0012
  2333.000    0.0012
  2334.000    0.0012
  2335.000    0.0012
  2336.000    0.0012
  2337.000    0.0012
  2338.000    0.0012
  2339.000    0.0012
  2340.000    0.0012
  2341.000    0.0012
  2342.000    0.0012
  2343.000    0.0012
  2344.000    0.0012
  2345.000    0.0012
  2346.000    0.0012
  2347.000    0.0012
  2348.000    0.0012
  2349.000    0.0012
  2350.000    0.0012
  2351.000    0.0012
  2352.000    0.0012
  2353.000    0.0012
  2354.000    0.0012
  2355.000    0.0012
  2356.000    0.0012
  2357.000    0.0012
  2358.000    0.0012
  2359.000    0.0012
  2360.000    0.0012
  2361.000    0.0012
  2362.000    0.0012
  2363.000    0.0012
  2364.000    0.0012
  2365.000    0.0012
  2366.000    0.0012
  2367.000    0.0012
  2368.000    0.0012
  2369.000    0.0012
  2370.000    0.0012
  2371.000    0.0012
  2372.000    0.0012
  2373.000    0.0012
  2374.000    0.0012
  2375.000    0.0012
  2376.000    0.0012
  2377.000    0.0012
  2378.000    0.0012
  2379.000    0.0012
  2380.000    0.0012
  2381.000    0.0012
  2382.000    0.0012
  2383.000    0.0012
  2384.000    0.0012
  2385.000    0.0012
  2386.000    0.0012
  2387.000    0.0012
  2388.000    0.0012
  2389.000    0.0012
  2390.000    0.0012
  2391.000    0.0012
  2392.000    0.0012
  2393.000    0.0012
  2394.000    0.0012
  2395.000    0.0012
  2396.000    0.0012
  2397.000    0.0012
  2398.000    0.0012
  2399.000    0.0012
  2400.000    0.0012
  2401.000    0.0012
  2402.000    0.0012
  2403.000    0.0012
  2404.000    0.0012
  2405.000    0.0012
  2406.000    0.0012
  2407.000    0.0012
  2408.000    0.0012
  2409.000    0.0012
  2410.000    0.0012
  2411.000    0.0012
  2412.000    0.0012
  2413.000    0.0012
  2414.000    0.0012
  2415.000    0.0012
  2416.000    0.0012
  2417.000    0.0012
  2418.000    0.0012
  2419.000    0.0012
  2420.000    0.0012
  2421.000    0.0012
  2422.000    0.0012
  2423.000    0.0012
  2424.000    0.0012
  2425.000    0.0012
  2426.000    0.0012
  2427.000    0.0012
  2428.000    0.0012
  2429.000    0.0012
  2430.000    0.0012
  2431.000    0.0012
  2432.000    0.0012
  2433.000    0.0012
  2434.000    0.0012
  2435.000    0.0012
  2436.000    0.0012
  2437.000    0.0012
  2438.000    0.0012
  2439.000    0.0012
  2440.000    0.0012
  2441.000    0.0012
  2442.000    0.0012
  2443.000    0.0012
  2444.000    0.0012
  2445.000    0.0012
  2446.000    0.0012
  2447.000    0.0012
  2448.000    0.0013
  2449.000    0.0013
  2450.000    0.0013
  2451.000    0.0013
  2452.000    0.0013
  2453.000    0.0013
  2454.000    0.0013
  2455.000    0.0013
  2456.000    0.0013
  2457.000    0.0013
  2458.000    0.0013
  2459.000    0.0013
  2460.000    0.0013
  2461.000    0.0013
  2462.000    0.0013
  2463.000    0.0013
  2464.000    0.0013
  2465.000    0.0013
  2466.000    0.0013
  2467.000    0.0013
  2468.000    0.0013
  2469.000    0.0013
  2470.000    0.0013
  2471.000    0.0013
  2472.000    0.0013
  2473.000    0.0013
  2474.000    0.0013
  2475.000    0.0013
  2476.000    0.0013
  2477.000    0.0013
  2478.000    0.0013
  2479.000    0.0013
  2480.000    0.0013
  2481.000    0.0013
  2482.000    0.0013
  2483.000    0.0013
  2484.000    0.0013
  2485.000    0.0013
  2486.000    0.0013
  2487.000    0.0013
  2488.000    0.0013
  2489.000    0.0013
  2490.000    0.0013
  2491.000    0.0013
  2492.000    0.0013
  2493.000    0.0013
  2494.000    0.0013
  2495.000    0.0013
  2496.000    0.0013
  2497.000    0.0013
  2498.000    0.0013
  2499.000    0.0014
  2500.000    0.0014
  2501.000    0.0014
  2502.000    0.0014
  2503.000    0.0014
  2504.000    0.0014
  2505.000    0.0014
  2506.000    0.0014
  2507.000    0.0014
  2508.000    0.0014
  2509.000    0.0014
  2510.000    0.0014
  2511.000    0.0014
  2512.000    0.0014
  2513.000    0.0014
  2514.000    0.0014
  2515.000    0.0014
  2516.000    0.0014
  2517.000    0.0014
  2518.000    0.0014
  2519.000    0.0014
  2520.000    0.0014
  2521.000    0.0014
  2522.000    0.0014
  2523.000    0.0014
  2524.000    0.0014
  2525.000    0.0014
  2526.000    0.0014
  2527.000    0.0014
  2528.000    0.0014
  2529.000    0.0014
  2530.000    0.0014
  2531.000    0.0014
  2532.000    0.0014
  2533.000    0.0015
  2534.000    0.0015
  2535.000    0.0015
  2536.000    0.0015
  2537.000    0.0015
  2538.000    0.0015
  2539.000    0.0015
  2540.000    0.0015
  2541.000    0.0015
  2542.000    0.0015
  2543.000    0.0015
  2544.000    0.0015
  2545.000    0.0015
  2546.000    0.0015
  2547.000    0.0015
  2548.000    0.0015
  2549.000    0.0015
  2550.000    0.0015
  2551.000    0.0015
  2552.000    0.0015
  2553.000    0.0015
  2554.000    0.0015
  2555.000    0.0015
  2556.000    0.0015
  2557.000    0.0015
  2558.000    0.0016
  2559.000    0.0016
  2560.000    0.0016
  2561.000    0.0016
  2562.000    0.0016
  2563.000    0.0016
  2564.000    0.0016
  2565.000    0.0016
  2566.000    0.0016
  2567.000    0.0016
  2568.000    0.0016
  2569.000    0.0016
  2570.000    0.0016
  2571.000    0.0016
  2572.000    0.0016
  2573.000    0.0016
  2574.000    0.0016
  2575.000    0.0016
  2576.000    0.0016
  2577.000    0.0016
  2578.000    0.0016
  2579.000    0.0017
  2580.000    0.0017
  2581.000    0.0017
  2582.000    0.0017
  2583.000    0.0017
  2584.000    0.0017
  2585.000    0.0017
  2586.000    0.0017
  2587.000    0.0017
  2588.000    0.0017
  2589.000    0.0017
  2590.000    0.0017
  2591.000    0.0017
  2592.000    0.0017
  2593.000    0.0017
  2594.000    0.0017
  2595.000    0.0017
  2596.000    0.0018
  2597.000    0.0018
  2598.000    0.0018
  2599.000    0.0018
  2600.000    0.0018
  2601.000    0.0018
  2602.000    0.0018
  2603.000    0.0018
  2604.000    0.0018
  2605.000    0.0018
  2606.000    0.0018
  2607.000    0.0018
  2608.000    0.0018
  2609.000    0.0018
  2610.000    0.0018
  2611.000    0.0019
  2612.000    0.0019
  2613.000    0.0019
  2614.000    0.0019
  2615.000    0.0019
  2616.000    0.0019
  2617.000    0.0019
  2618.000    0.0019
  2619.000    0.0019
  2620.000    0.0019
  2621.000    0.0019
  2622.000    0.0019
  2623.000    0.0019
  2624.000    0.0020
  2625.000    0.0020
  2626.000    0.0020
  2627.000    0.0020
  2628.000    0.0020
  2629.000    0.0020
  2630.000    0.0020
  2631.000    0.0020
  2632.000    0.0020
  2633.000    0.0020
  2634.000    0.0020
  2635.000    0.0021
  2636.000    0.0021
  2637.000    0.0021
  2638.000    0.0021
  2639.000    0.0021
  2640.000    0.0021
  2641.000    0.0021
  2642.000    0.0021
  2643.000    0.0021
  2644.000    0.0021
  2645.000    0.0022
  2646.000    0.0022
  2647.000    0.0022
  2648.000    0.0022
  2649.000    0.0022
  2650.000    0.0022
  2651.000    0.0022
  2652.000    0.0022
  2653.000    0.0022
  2654.000    0.0023
  2655.000    0.0023
  2656.000    0.0023
  2657.000    0.0023
  2658.000    0.0023
  2659.000    0.0023
  2660.000    0.0023
  2661.000    0.0023
  2662.000    0.0023
  2663.000    0.0024
  2664.000    0.0024
  2665.000    0.0024
  2666.000    0.0024
  2667.000    0.0024
  2668.000    0.0024
  2669.000    0.0024
  2670.000    0.0025
  2671.000    0.0025
  2672.000    0.0025
  2673.000    0.0025
  2674.000    0.0025
  2675.000    0.0025
  2676.000    0.0025
  2677.000    0.0026
  2678.000    0.0026
  2679.000    0.0026
  2680.000    0.0026
  2681.000    0.0026
  2682.000    0.0026
  2683.000    0.0026
  2684.000    0.0027
  2685.000    0.0027
  2686.000    0.0027
  2687.000    0.0027
  2688.000    0.0027
  2689.000    0.0027
  2690.000    0.0028
  2691.000    0.0028
  2692.000    0.0028
  2693.000    0.0028
  2694.000    0.0028
  2695.000    0.0028
  2696.000    0.0029
  2697.000    0.0029
  2698.000    0.0029
  2699.000    0.0029
  2700.000    0.0029
  2701.000    0.0030
  2702.000    0.0030
  2703.000    0.0030
  2704.000    0.0030
  2705.000    0.0030
  2706.000    0.0031
  2707.000    0.0031
  2708.000    0.0031
  2709.000    0.0031
  2710.000    0.0032
  2711.000    0.0032
  2712.000    0.0032
  2713.000    0.0032
  2714.000    0.0032
  2715.000    0.0033
  2716.000    0.0033
  2717.000    0.0033
  2718.000    0.0033
  2719.000    0.0034
  2720.000    0.0034
  2721.000    0.0034
  2722.000    0.0034
  2723.000    0.0035
  2724.000    0.0035
  2725.000    0.0035
  2726.000    0.0035
  2727.000    0.0036
  2728.000    0.0036
  2729.000    0.0036
  2730.000    0.0037
  2731.000    0.0037
  2732.000    0.0037
  2733.000    0.0038
  2734.000    0.0038
  2735.000    0.0038
  2736.000    0.0038
  2737.000    0.0039
  2738.000    0.0039
  2739.000    0.0039
  2740.000    0.0040
  2741.000    0.0040
  2742.000    0.0040
  2743.000    0.0041
  2744.000    0.0041
  2745.000    0.0042
  2746.000    0.0042
  2747.000    0.0042
  2748.000    0.0043
  2749.000    0.0043
  2750.000    0.0043
  2751.000    0.0044
  2752.000    0.0044
  2753.000    0.0045
  2754.000    0.0045
  2755.000    0.0045
  2756.000    0.0046
  2757.000    0.0046
  2758.000    0.0047
  2759.000    0.0047
  2760.000    0.0048
  2761.000    0.0048
  2762.000    0.0049
  2763.000    0.0049
  2764.000    0.0050
  2765.000    0.0050
  2766.000    0.0051
  2767.000    0.0051
  2768.000    0.0052
  2769.000    0.0052
  2770.000    0.0053
  2771.000    0.0053
  2772.000    0.0054
  2773.000    0.0054
  2774.000    0.0055
  2775.000    0.0055
  2776.000    0.0056
  2777.000    0.0057
  2778.000    0.0057
  2779.000    0.0058
  2780.000    0.0059
  2781.000    0.0059
  2782.000    0.0060
  2783.000    0.0061
  2784.000    0.0061
  2785.000    0.0062
  2786.000    0.0063
  2787.000    0.0063
  2788.000    0.0064
  2789.000    0.0065
  2790.000    0.0066
  2791.000    0.0066
  2792.000    0.0067
  2793.000    0.0068
  2794.000    0.0069
  2795.000    0.0070
  2796.000    0.0071
  2797.000    0.0071
  2798.000    0.0072
  2799.000    0.0073
  2800.000    0.0074
  2801.000    0.0075
  2802.000    0.0076
  2803.000    0.0077
  2804.000    0.0078
  2805.000    0.0079
  2806.000    0.0080
  2807.000    0.0081
  2808.000    0.0082
  2809.000    0.0084
  2810.000    0.0085
  2811.000    0.0086
  2812.000    0.0087
  2813.000    0.0088
  2814.000    0.0090
  2815.000    0.0091
  2816.000    0.0092
  2817.000    0.0094
  2818.000    0.0095
  2819.000    0.0096
  2820.000    0.0098
  2821.000    0.0099
  2822.000    0.0101
  2823.000    0.0102
  2824.000    0.0104
  2825.000    0.0106
  2826.000    0.0107
  2827.000    0.0109
  2828.000    0.0111
  2829.000    0.0113
  2830.000    0.0114
  2831.000    0.0116
  2832.000    0.0118
  2833.000    0.0120
  2834.000    0.0122
  2835.000    0.0124
  2836.000    0.0127
  2837.000    0.0129
  2838.000    0.0131
  2839.000    0.0133
  2840.000    0.0136
  2841.000    0.0138
  2842.000    0.0141
  2843.000    0.0143
  2844.000    0.0146
  2845.000    0.0149
  2846.000    0.0152
  2847.000    0.0155
  2848.000    0.0158
  2849.000    0.0161
  2850.000    0.0164
  2851.000    0.0168
  2852.000    0.0171
  2853.000    0.0175
  2854.000    0.0178
  2855.000    0.0182
  2856.000    0.0186
  2857.000    0.0190
  2858.000    0.0194
  2859.000    0.0198
  2860.000    0.0203
  2861.000    0.0207
  2862.000    0.0212
  2863.000    0.0217
  2864.000    0.0222
  2865.000    0.0228
  2866.000    0.0233
  2867.000    0.0239
  2868.000    0.0245
  2869.000    0.0251
  2870.000    0.0257
  2871.000    0.0264
  2872.000    0.0271
  2873.000    0.0278
  2874.000    0.0286
  2875.000    0.0293
  2876.000    0.0301
  2877.000    0.0310
  2878.000    0.0319
  2879.000    0.0328
  2880.000    0.0338
  2881.000    0.0348
  2882.000    0.0358
  2883.000    0.0369
  2884.000    0.0381
  2885.000    0.0393
  2886.000    0.0406
  2887.000    0.0419
  2888.000    0.0433
  2889.000    0.0448
  2890.000    0.0463
  2891.000    0.0480
  2892.000    0.0497
  2893.000    0.0515
  2894.000    0.0534
  2895.000    0.0554
  2896.000    0.0576
  2897.000    0.0598
  2898.000    0.0623
  2899.000    0.0648
  2900.000    0.0675
  2901.000    0.0704
  2902.000    0.0735
  2903.000    0.0768
  2904.000    0.0803
  2905.000    0.0841
  2906.000    0.0881
  2907.000    0.0925
  2908.000    0.0971
  2909.000    0.1022
  2910.000    0.1076
  2911.000    0.1135
  2912.000    0.1198
  2913.000    0.1267
  2914.000    0.1343
  2915.000    0.1425
  2916.000    0.1515
  2917.000    0.1614
  2918.000    0.1722
  2919.000    0.1842
  2920.000    0.1975
  2921.000    0.2122
  2922.000    0.2287
  2923.000    0.2471
  2924.000    0.2678
  2925.000    0.2912
  2926.000    0.3178
  2927.000    0.3481
  2928.000    0.3829
  2929.000    0.4230
  2930.000    0.4696
  2931.000    0.5242
  2932.000    0.5885
  2933.000    0.6650
  2934.000    0.7566
  2935.000    0.8675
  2936.000    1.0030
  2937.000    1.1701
  2938.000    1.3779
  2939.000    1.6383
  2940.000    1.9658
  2941.000    2.3761
  2942.000    2.8817
  2943.000    3.4820
  2944.000    4.1475
  2945.000    4.8059
  2946.000    5.3473
  2947.000    5.6560
  2948.000    5.6563
  2949.000    5.3467
  2950.000    4.8020
  2951.000    4.1398
  2952.000    3.4719
  2953.000    2.8713
  2954.000    2.3667
  2955.000    1.9580
  2956.000    1.6320
  2957.000    1.3728
  2958.000    1.1660
  2959.000    0.9998
  2960.000    0.8649
  2961.000    0.7545
  2962.000    0.6632
  2963.000    0.5870
  2964.000    0.5229
  2965.000    0.4686
  2966.000    0.4221
  2967.000    0.3821
  2968.000    0.3474
  2969.000    0.3172
  2970.000    0.2907
  2971.000    0.2674
  2972.000    0.2467
  2973.000    0.2283
  2974.000    0.2119
  2975.000    0.1972
  2976.000    0.1839
  2977.000    0.1720
  2978.000    0.1611
  2979.000    0.1513
  2980.000    0.1423
  2981.000    0.1341
  2982.000    0.1266
  2983.000    0.1197
  2984.000    0.1133
  2985.000    0.1075
  2986.000    0.1020
  2987.000    0.0970
  2988.000    0.0924
  2989.000    0.0880
  2990.000    0.0840
  2991.000    0.0802
  2992.000    0.0767
  2993.000    0.0734
  2994.000    0.0703
  2995.000    0.0674
  2996.000    0.0647
  2997.000    0.0622
  2998.000    0.0598
  2999.000    0.0575
  3000.000    0.0554
  3001.000    0.0533
  3002.000    0.0514
  3003.000    0.0496
  3004.000    0.0479
  3005.000    0.0463
  3006.000    0.0447
  3007.000    0.0432
  3008.000    0.0418
  3009.000    0.0405
  3010.000    0.0392
  3011.000    0.0380
  3012.000    0.0369
  3013.000    0.0358
  3014.000    0.0347
  3015.000    0.0337
  3016.000    0.0327
  3017.000    0.0318
  3018.000    0.0309
  3019.000    0.0301
  3020.000    0.0293
  3021.000    0.0285
  3022.000    0.0277
  3023.000    0.0270
  3024.000    0.0263
  3025.000    0.0257
  3026.000    0.0250
  3027.000    0.0244
  3028.000    0.0238
  3029.000    0.0232
  3030.000    0.0227
  3031.000    0.0222
  3032.000    0.0216
  3033.000    0.0212
  3034.000    0.0207
  3035.000    0.0202
  3036.000    0.0198
  3037.000    0.0193
  3038.000    0.0189
  3039.000    0.0185
  3040.000    0.0181
  3041.000    0.0177
  3042.000    0.0174
  3043.000    0.0170
  3044.000    0.0167
  3045.000    0.0163
  3046.000    0.0160
  3047.000    0.0157
  3048.000    0.0154
  3049.000    0.0151
  3050.000    0.0148
