# v / cm^-1  DOS / states (q-point cm^-1)^-1
  -100.000    0.0090
   -99.000    0.0091
   -98.000    0.0092
   -97.000    0.0093
   -96.000    0.0094
   -95.000    0.0095
   -94.000    0.0096
   -93.000    0.0097
   -92.000    0.0098
   -91.000    0.0099
   -90.000    0.0100
   -89.000    0.0101
   -88.000    0.0102
   -87.000    0.0103
   -86.000    0.0104
   -85.000    0.0106
   -84.000    0.0107
   -83.000    0.0108
   -82.000    0.0109
   -81.000    0.0110
   -80.000    0.0112
   -79.000    0.0113
   -78.000    0.0114
   -77.000    0.0116
   -76.000    0.0117
   -75.000    0.0119
   -74.000    0.0120
   -73.000    0.0122
   -72.000    0.0123
   -71.000    0.0125
   -70.000    0.0126
   -69.000    0.0128
   -68.000    0.0130
   -67.000    0.0132
   -66.000    0.0133
   -65.000    0.0135
   -64.000    0.0137
   -63.000    0.0139
   -62.000    0.0141
   -61.000    0.0143
   -60.000    0.0145
   -59.000    0.0147
   -58.000    0.0150
   -57.000    0.0152
   -56.000    0.0154
   -55.000    0.0157
   -54.000    0.0159
   -53.000    0.0162
   -52.000    0.0165
   -51.000    0.0167
   -50.000    0.0170
   -49.000    0.0173
   -48.000    0.0176
   -47.000    0.0179
   -46.000    0.0183
   -45.000    0.0186
   -44.000    0.0190
   -43.000    0.0193
   -42.000    0.0197
   -41.000    0.0201
   -40.000    0.0205
   -39.000    0.0209
   -38.000    0.0214
   -37.000    0.0218
   -36.000    0.0223
   -35.000    0.0228
   -34.000    0.0233
   -33.000    0.0239
   -32.000    0.0244
   -31.000    0.0250
   -30.000    0.0256
   -29.000    0.0263
   -28.000    0.0270
   -27.000    0.0277
   -26.000    0.0284
   -25.000    0.0292
   -24.000    0.0301
   -23.000    0.0310
   -22.000    0.0319
   -21.000    0.0329
   -20.000    0.0340
   -19.000    0.0351
   -18.000    0.0363
   -17.000    0.0376
   -16.000    0.0390
   -15.000    0.0404
   -14.000    0.0420
   -13.000    0.0437
   -12.000    0.0455
   -11.000    0.0475
   -10.000    0.0497
    -9.000    0.0521
    -8.000    0.0547
    -7.000    0.0575
    -6.000    0.0607
    -5.000    0.0641
    -4.000    0.0680
    -3.000    0.0724
    -2.000    0.0773
    -1.000    0.0829
     0.000    0.0893
     1.000    0.0966
     2.000    0.1051
     3.000    0.1150
     4.000    0.1265
     5.000    0.1400
     6.000    0.1559
     7.000    0.1747
     8.000    0.1970
     9.000    0.2236
    10.000    0.2552
    11.000    0.2922
    12.000    0.3345
    13.000    0.3809
    14.000    0.4289
    15.000    0.4757
    16.000    0.5187
    17.000    0.5569
    18.000    0.5921
    19.000    0.6268
    20.000    0.6621
    21.000    0.6961
    22.000    0.7251
    23.000    0.7465
    24.000    0.7601
    25.000    0.7680
    26.000    0.7732
    27.000    0.7777
    28.000    0.7814
    29.000    0.7819
    30.000    0.7764
    31.000    0.7639
    32.000    0.7451
    33.000    0.7213
    34.000    0.6942
    35.000    0.6660
    36.000    0.6398
    37.000    0.6189
    38.000    0.6058
    39.000    0.6017
    40.000    0.6049
    41.000    0.6114
    42.000    0.6154
    43.000    0.6118
    44.000    0.5980
    45.000    0.5751
    46.000    0.5465
    47.000    0.5160
    48.000    0.4869
    49.000    0.4615
    50.000    0.4412
    51.000    0.4266
    52.000    0.4176
    53.000    0.4138
    54.000    0.4144
    55.000    0.4191
    56.000    0.4270
    57.000    0.4372
    58.000    0.4485
    59.000    0.4598
    60.000    0.4702
    61.000    0.4793
    62.000    0.4869
    63.000    0.4930
    64.000    0.4975
    65.000    0.5013
    66.000    0.5057
    67.000    0.5121
    68.000    0.5209
    69.000    0.5322
    70.000    0.5460
    71.000    0.5628
    72.000    0.5822
    73.000    0.6029
    74.000    0.6230
    75.000    0.6413
    76.000    0.6579
    77.000    0.6747
    78.000    0.6935
    79.000    0.7150
    80.000    0.7378
    81.000    0.7584
    82.000    0.7724
    83.000    0.7755
    84.000    0.7656
    85.000    0.7441
    86.000    0.7159
    87.000    0.6874
    88.000    0.6651
    89.000    0.6541
    90.000    0.6570
    91.000    0.6733
    92.000    0.7001
    93.000    0.7340
    94.000    0.7718
    95.000    0.8105
    96.000    0.8473
    97.000    0.8792
    98.000    0.9040
    99.000    0.9200
   100.000    0.9279
   101.000    0.9302
   102.000    0.9301
   103.000    0.9303
   104.000    0.9307
   105.000    0.9289
   106.000    0.9216
   107.000    0.9069
   108.000    0.8846
   109.000    0.8556
   110.000    0.8220
   111.000    0.7873
   112.000    0.7559
   113.000    0.7318
   114.000    0.7174
   115.000    0.7126
   116.000    0.7149
   117.000    0.7213
   118.000    0.7296
   119.000    0.7390
   120.000    0.7482
   121.000    0.7556
   122.000    0.7600
   123.000    0.7622
   124.000    0.7635
   125.000    0.7650
   126.000    0.7661
   127.000    0.7654
   128.000    0.7618
   129.000    0.7548
   130.000    0.7446
   131.000    0.7324
   132.000    0.7209
   133.000    0.7127
   134.000    0.7095
   135.000    0.7109
   136.000    0.7145
   137.000    0.7176
   138.000    0.7193
   139.000    0.7202
   140.000    0.7212
   141.000    0.7223
   142.000    0.7229
   143.000    0.7233
   144.000    0.7243
   145.000    0.7272
   146.000    0.7334
   147.000    0.7450
   148.000    0.7633
   149.000    0.7879
   150.000    0.8156
   151.000    0.8409
   152.000    0.8582
   153.000    0.8634
   154.000    0.8567
   155.000    0.8418
   156.000    0.8233
   157.000    0.8046
   158.000    0.7883
   159.000    0.7751
   160.000    0.7640
   161.000    0.7523
   162.000    0.7368
   163.000    0.7165
   164.000    0.6934
   165.000    0.6714
   166.000    0.6540
   167.000    0.6425
   168.000    0.6359
   169.000    0.6327
   170.000    0.6316
   171.000    0.6315
   172.000    0.6317
   173.000    0.6334
   174.000    0.6386
   175.000    0.6487
   176.000    0.6633
   177.000    0.6801
   178.000    0.6958
   179.000    0.7069
   180.000    0.7112
   181.000    0.7093
   182.000    0.7036
   183.000    0.6974
   184.000    0.6932
   185.000    0.6927
   186.000    0.6961
   187.000    0.7024
   188.000    0.7110
   189.000    0.7218
   190.000    0.7356
   191.000    0.7527
   192.000    0.7727
   193.000    0.7945
   194.000    0.8164
   195.000    0.8356
   196.000    0.8487
   197.000    0.8521
   198.000    0.8427
   199.000    0.8185
   200.000    0.7802
   201.000    0.7316
   202.000    0.6789
   203.000    0.6277
   204.000    0.5816
   205.000    0.5415
   206.000    0.5072
   207.000    0.4777
   208.000    0.4528
   209.000    0.4319
   210.000    0.4146
   211.000    0.4001
   212.000    0.3871
   213.000    0.3745
   214.000    0.3617
   215.000    0.3486
   216.000    0.3361
   217.000    0.3250
   218.000    0.3162
   219.000    0.3104
   220.000    0.3079
   221.000    0.3089
   222.000    0.3133
   223.000    0.3198
   224.000    0.3258
   225.000    0.3282
   226.000    0.3252
   227.000    0.3171
   228.000    0.3061
   229.000    0.2948
   230.000    0.2854
   231.000    0.2792
   232.000    0.2768
   233.000    0.2780
   234.000    0.2828
   235.000    0.2909
   236.000    0.3023
   237.000    0.3170
   238.000    0.3352
   239.000    0.3574
   240.000    0.3840
   241.000    0.4155
   242.000    0.4524
   243.000    0.4948
   244.000    0.5423
   245.000    0.5942
   246.000    0.6500
   247.000    0.7095
   248.000    0.7724
   249.000    0.8367
   250.000    0.8986
   251.000    0.9544
   252.000    1.0010
   253.000    1.0357
   254.000    1.0565
   255.000    1.0626
   256.000    1.0547
   257.000    1.0348
   258.000    1.0050
   259.000    0.9663
   260.000    0.9195
   261.000    0.8663
   262.000    0.8118
   263.000    0.7638
   264.000    0.7293
   265.000    0.7113
   266.000    0.7076
   267.000    0.7117
   268.000    0.7152
   269.000    0.7119
   270.000    0.6997
   271.000    0.6803
   272.000    0.6571
   273.000    0.6332
   274.000    0.6111
   275.000    0.5925
   276.000    0.5781
   277.000    0.5674
   278.000    0.5594
   279.000    0.5530
   280.000    0.5468
   281.000    0.5396
   282.000    0.5307
   283.000    0.5204
   284.000    0.5103
   285.000    0.5020
   286.000    0.4960
   287.000    0.4921
   288.000    0.4903
   289.000    0.4916
   290.000    0.4976
   291.000    0.5094
   292.000    0.5274
   293.000    0.5501
   294.000    0.5748
   295.000    0.5980
   296.000    0.6167
   297.000    0.6296
   298.000    0.6369
   299.000    0.6383
   300.000    0.6335
   301.000    0.6227
   302.000    0.6073
   303.000    0.5905
   304.000    0.5756
   305.000    0.5645
   306.000    0.5569
   307.000    0.5512
   308.000    0.5463
   309.000    0.5423
   310.000    0.5399
   311.000    0.5406
   312.000    0.5470
   313.000    0.5621
   314.000    0.5883
   315.000    0.6252
   316.000    0.6694
   317.000    0.7155
   318.000    0.7579
   319.000    0.7935
   320.000    0.8227
   321.000    0.8476
   322.000    0.8704
   323.000    0.8913
   324.000    0.9093
   325.000    0.9233
   326.000    0.9338
   327.000    0.9411
   328.000    0.9443
   329.000    0.9414
   330.000    0.9316
   331.000    0.9173
   332.000    0.9041
   333.000    0.8981
   334.000    0.9038
   335.000    0.9225
   336.000    0.9523
   337.000    0.9891
   338.000    1.0274
   339.000    1.0622
   340.000    1.0903
   341.000    1.1112
   342.000    1.1271
   343.000    1.1420
   344.000    1.1600
   345.000    1.1836
   346.000    1.2128
   347.000    1.2448
   348.000    1.2751
   349.000    1.2986
   350.000    1.3110
   351.000    1.3112
   352.000    1.3015
   353.000    1.2861
   354.000    1.2686
   355.000    1.2510
   356.000    1.2346
   357.000    1.2213
   358.000    1.2135
   359.000    1.2120
   360.000    1.2132
   361.000    1.2096
   362.000    1.1929
   363.000    1.1590
   364.000    1.1087
   365.000    1.0456
   366.000    0.9734
   367.000    0.8959
   368.000    0.8188
   369.000    0.7479
   370.000    0.6871
   371.000    0.6368
   372.000    0.5958
   373.000    0.5619
   374.000    0.5344
   375.000    0.5129
   376.000    0.4972
   377.000    0.4863
   378.000    0.4786
   379.000    0.4721
   380.000    0.4659
   381.000    0.4598
   382.000    0.4553
   383.000    0.4540
   384.000    0.4567
   385.000    0.4627
   386.000    0.4702
   387.000    0.4766
   388.000    0.4793
   389.000    0.4763
   390.000    0.4669
   391.000    0.4518
   392.000    0.4338
   393.000    0.4158
   394.000    0.4006
   395.000    0.3891
   396.000    0.3807
   397.000    0.3729
   398.000    0.3629
   399.000    0.3499
   400.000    0.3352
   401.000    0.3211
   402.000    0.3103
   403.000    0.3042
   404.000    0.3035
   405.000    0.3082
   406.000    0.3177
   407.000    0.3314
   408.000    0.3488
   409.000    0.3695
   410.000    0.3921
   411.000    0.4150
   412.000    0.4356
   413.000    0.4521
   414.000    0.4633
   415.000    0.4692
   416.000    0.4703
   417.000    0.4668
   418.000    0.4589
   419.000    0.4463
   420.000    0.4289
   421.000    0.4072
   422.000    0.3831
   423.000    0.3600
   424.000    0.3410
   425.000    0.3287
   426.000    0.3242
   427.000    0.3280
   428.000    0.3402
   429.000    0.3605
   430.000    0.3883
   431.000    0.4226
   432.000    0.4613
   433.000    0.5026
   434.000    0.5449
   435.000    0.5886
   436.000    0.6354
   437.000    0.6872
   438.000    0.7441
   439.000    0.8044
   440.000    0.8645
   441.000    0.9180
   442.000    0.9541
   443.000    0.9598
   444.000    0.9293
   445.000    0.8690
   446.000    0.7920
   447.000    0.7107
   448.000    0.6326
   449.000    0.5618
   450.000    0.5012
   451.000    0.4525
   452.000    0.4162
   453.000    0.3920
   454.000    0.3793
   455.000    0.3775
   456.000    0.3861
   457.000    0.4045
   458.000    0.4306
   459.000    0.4596
   460.000    0.4834
   461.000    0.4944
   462.000    0.4906
   463.000    0.4782
   464.000    0.4667
   465.000    0.4638
   466.000    0.4741
   467.000    0.4995
   468.000    0.5398
   469.000    0.5916
   470.000    0.6467
   471.000    0.6924
   472.000    0.7181
   473.000    0.7223
   474.000    0.7125
   475.000    0.6959
   476.000    0.6750
   477.000    0.6489
   478.000    0.6158
   479.000    0.5754
   480.000    0.5298
   481.000    0.4827
   482.000    0.4388
   483.000    0.4016
   484.000    0.3729
   485.000    0.3534
   486.000    0.3428
   487.000    0.3408
   488.000    0.3470
   489.000    0.3613
   490.000    0.3836
   491.000    0.4133
   492.000    0.4497
   493.000    0.4925
   494.000    0.5425
   495.000    0.6016
   496.000    0.6706
   497.000    0.7474
   498.000    0.8230
   499.000    0.8812
   500.000    0.9053
   501.000    0.8899
   502.000    0.8460
   503.000    0.7941
   504.000    0.7507
   505.000    0.7224
   506.000    0.7061
   507.000    0.6923
   508.000    0.6712
   509.000    0.6378
   510.000    0.5926
   511.000    0.5401
   512.000    0.4867
   513.000    0.4378
   514.000    0.3969
   515.000    0.3649
   516.000    0.3412
   517.000    0.3250
   518.000    0.3153
   519.000    0.3113
   520.000    0.3126
   521.000    0.3192
   522.000    0.3312
   523.000    0.3491
   524.000    0.3738
   525.000    0.4061
   526.000    0.4470
   527.000    0.4969
   528.000    0.5553
   529.000    0.6204
   530.000    0.6890
   531.000    0.7572
   532.000    0.8213
   533.000    0.8789
   534.000    0.9314
   535.000    0.9837
   536.000    1.0410
   537.000    1.1032
   538.000    1.1646
   539.000    1.2200
   540.000    1.2707
   541.000    1.3226
   542.000    1.3790
   543.000    1.4343
   544.000    1.4747
   545.000    1.4880
   546.000    1.4757
   547.000    1.4560
   548.000    1.4538
   549.000    1.4890
   550.000    1.5707
   551.000    1.6957
   552.000    1.8467
   553.000    1.9941
   554.000    2.1080
   555.000    2.1737
   556.000    2.1932
   557.000    2.1707
   558.000    2.1074
   559.000    2.0102
   560.000    1.8936
   561.000    1.7698
   562.000    1.6442
   563.000    1.5192
   564.000    1.3977
   565.000    1.2836
   566.000    1.1790
   567.000    1.0845
   568.000    0.9996
   569.000    0.9223
   570.000    0.8496
   571.000    0.7785
   572.000    0.7081
   573.000    0.6400
   574.000    0.5779
   575.000    0.5253
   576.000    0.4840
   577.000    0.4542
   578.000    0.4355
   579.000    0.4268
   580.000    0.4267
   581.000    0.4329
   582.000    0.4423
   583.000    0.4523
   584.000    0.4611
   585.000    0.4681
   586.000    0.4724
   587.000    0.4731
   588.000    0.4696
   589.000    0.4614
   590.000    0.4489
   591.000    0.4333
   592.000    0.4161
   593.000    0.3994
   594.000    0.3851
   595.000    0.3755
   596.000    0.3719
   597.000    0.3740
   598.000    0.3800
   599.000    0.3869
   600.000    0.3916
   601.000    0.3921
   602.000    0.3879
   603.000    0.3799
   604.000    0.3695
   605.000    0.3584
   606.000    0.3481
   607.000    0.3400
   608.000    0.3351
   609.000    0.3346
   610.000    0.3394
   611.000    0.3501
   612.000    0.3668
   613.000    0.3887
   614.000    0.4140
   615.000    0.4402
   616.000    0.4644
   617.000    0.4837
   618.000    0.4960
   619.000    0.5003
   620.000    0.4969
   621.000    0.4885
   622.000    0.4788
   623.000    0.4721
   624.000    0.4716
   625.000    0.4787
   626.000    0.4935
   627.000    0.5147
   628.000    0.5406
   629.000    0.5701
   630.000    0.6025
   631.000    0.6379
   632.000    0.6764
   633.000    0.7181
   634.000    0.7633
   635.000    0.8127
   636.000    0.8675
   637.000    0.9286
   638.000    0.9950
   639.000    1.0611
   640.000    1.1171
   641.000    1.1513
   642.000    1.1550
   643.000    1.1259
   644.000    1.0693
   645.000    0.9957
   646.000    0.9135
   647.000    0.8261
   648.000    0.7346
   649.000    0.6424
   650.000    0.5550
   651.000    0.4774
   652.000    0.4120
   653.000    0.3585
   654.000    0.3155
   655.000    0.2811
   656.000    0.2537
   657.000    0.2317
   658.000    0.2143
   659.000    0.2005
   660.000    0.1898
   661.000    0.1818
   662.000    0.1762
   663.000    0.1729
   664.000    0.1719
   665.000    0.1732
   666.000    0.1772
   667.000    0.1842
   668.000    0.1947
   669.000    0.2095
   670.000    0.2294
   671.000    0.2552
   672.000    0.2869
   673.000    0.3225
   674.000    0.3570
   675.000    0.3822
   676.000    0.3912
   677.000    0.3842
   678.000    0.3687
   679.000    0.3542
   680.000    0.3476
   681.000    0.3524
   682.000    0.3696
   683.000    0.3981
   684.000    0.4333
   685.000    0.4654
   686.000    0.4810
   687.000    0.4699
   688.000    0.4332
   689.000    0.3822
   690.000    0.3290
   691.000    0.2810
   692.000    0.2407
   693.000    0.2082
   694.000    0.1823
   695.000    0.1617
   696.000    0.1452
   697.000    0.1319
   698.000    0.1212
   699.000    0.1124
   700.000    0.1051
   701.000    0.0991
   702.000    0.0941
   703.000    0.0899
   704.000    0.0864
   705.000    0.0834
   706.000    0.0810
   707.000    0.0790
   708.000    0.0773
   709.000    0.0759
   710.000    0.0748
   711.000    0.0740
   712.000    0.0735
   713.000    0.0731
   714.000    0.0730
   715.000    0.0731
   716.000    0.0733
   717.000    0.0738
   718.000    0.0745
   719.000    0.0754
   720.000    0.0765
   721.000    0.0778
   722.000    0.0794
   723.000    0.0812
   724.000    0.0833
   725.000    0.0858
   726.000    0.0886
   727.000    0.0918
   728.000    0.0955
   729.000    0.0997
   730.000    0.1045
   731.000    0.1101
   732.000    0.1166
   733.000    0.1241
   734.000    0.1328
   735.000    0.1432
   736.000    0.1555
   737.000    0.1702
   738.000    0.1880
   739.000    0.2097
   740.000    0.2365
   741.000    0.2696
   742.000    0.3106
   743.000    0.3609
   744.000    0.4207
   745.000    0.4879
   746.000    0.5556
   747.000    0.6135
   748.000    0.6527
   749.000    0.6735
   750.000    0.6855
   751.000    0.6997
   752.000    0.7199
   753.000    0.7398
   754.000    0.7478
   755.000    0.7369
   756.000    0.7099
   757.000    0.6754
   758.000    0.6410
   759.000    0.6115
   760.000    0.5903
   761.000    0.5791
   762.000    0.5769
   763.000    0.5803
   764.000    0.5844
   765.000    0.5862
   766.000    0.5855
   767.000    0.5856
   768.000    0.5912
   769.000    0.6068
   770.000    0.6349
   771.000    0.6756
   772.000    0.7249
   773.000    0.7766
   774.000    0.8254
   775.000    0.8693
   776.000    0.9076
   777.000    0.9372
   778.000    0.9536
   779.000    0.9559
   780.000    0.9499
   781.000    0.9454
   782.000    0.9519
   783.000    0.9754
   784.000    1.0155
   785.000    1.0637
   786.000    1.1060
   787.000    1.1277
   788.000    1.1202
   789.000    1.0839
   790.000    1.0270
   791.000    0.9611
   792.000    0.8968
   793.000    0.8417
   794.000    0.8001
   795.000    0.7734
   796.000    0.7620
   797.000    0.7648
   798.000    0.7782
   799.000    0.7956
   800.000    0.8085
   801.000    0.8108
   802.000    0.7995
   803.000    0.7734
   804.000    0.7323
   805.000    0.6774
   806.000    0.6135
   807.000    0.5485
   808.000    0.4897
   809.000    0.4413
   810.000    0.4050
   811.000    0.3806
   812.000    0.3674
   813.000    0.3648
   814.000    0.3720
   815.000    0.3875
   816.000    0.4075
   817.000    0.4253
   818.000    0.4317
   819.000    0.4209
   820.000    0.3948
   821.000    0.3610
   822.000    0.3274
   823.000    0.2986
   824.000    0.2762
   825.000    0.2602
   826.000    0.2503
   827.000    0.2458
   828.000    0.2465
   829.000    0.2522
   830.000    0.2625
   831.000    0.2764
   832.000    0.2914
   833.000    0.3034
   834.000    0.3085
   835.000    0.3053
   836.000    0.2967
   837.000    0.2873
   838.000    0.2803
   839.000    0.2777
   840.000    0.2799
   841.000    0.2871
   842.000    0.2997
   843.000    0.3179
   844.000    0.3424
   845.000    0.3742
   846.000    0.4145
   847.000    0.4647
   848.000    0.5254
   849.000    0.5965
   850.000    0.6766
   851.000    0.7636
   852.000    0.8567
   853.000    0.9565
   854.000    1.0651
   855.000    1.1849
   856.000    1.3179
   857.000    1.4647
   858.000    1.6211
   859.000    1.7705
   860.000    1.8804
   861.000    1.9142
   862.000    1.8568
   863.000    1.7245
   864.000    1.5508
   865.000    1.3671
   866.000    1.1935
   867.000    1.0389
   868.000    0.9051
   869.000    0.7912
   870.000    0.6951
   871.000    0.6152
   872.000    0.5499
   873.000    0.4974
   874.000    0.4564
   875.000    0.4251
   876.000    0.4021
   877.000    0.3862
   878.000    0.3768
   879.000    0.3732
   880.000    0.3753
   881.000    0.3832
   882.000    0.3974
   883.000    0.4185
   884.000    0.4476
   885.000    0.4861
   886.000    0.5354
   887.000    0.5964
   888.000    0.6686
   889.000    0.7494
   890.000    0.8349
   891.000    0.9223
   892.000    1.0112
   893.000    1.1034
   894.000    1.2015
   895.000    1.3088
   896.000    1.4275
   897.000    1.5567
   898.000    1.6924
   899.000    1.8238
   900.000    1.9285
   901.000    1.9745
   902.000    1.9366
   903.000    1.8151
   904.000    1.6382
   905.000    1.4456
   906.000    1.2700
   907.000    1.1283
   908.000    1.0257
   909.000    0.9612
   910.000    0.9324
   911.000    0.9360
   912.000    0.9677
   913.000    1.0190
   914.000    1.0747
   915.000    1.1142
   916.000    1.1204
   917.000    1.0890
   918.000    1.0299
   919.000    0.9594
   920.000    0.8929
   921.000    0.8415
   922.000    0.8121
   923.000    0.8082
   924.000    0.8316
   925.000    0.8830
   926.000    0.9601
   927.000    1.0550
   928.000    1.1500
   929.000    1.2202
   930.000    1.2476
   931.000    1.2366
   932.000    1.2111
   933.000    1.1950
   934.000    1.1967
   935.000    1.2047
   936.000    1.1935
   937.000    1.1404
   938.000    1.0432
   939.000    0.9213
   940.000    0.7980
   941.000    0.6882
   942.000    0.5970
   943.000    0.5242
   944.000    0.4673
   945.000    0.4234
   946.000    0.3900
   947.000    0.3653
   948.000    0.3479
   949.000    0.3369
   950.000    0.3317
   951.000    0.3322
   952.000    0.3387
   953.000    0.3517
   954.000    0.3722
   955.000    0.4017
   956.000    0.4421
   957.000    0.4953
   958.000    0.5630
   959.000    0.6444
   960.000    0.7337
   961.000    0.8172
   962.000    0.8756
   963.000    0.8921
   964.000    0.8623
   965.000    0.7962
   966.000    0.7119
   967.000    0.6266
   968.000    0.5512
   969.000    0.4898
   970.000    0.4426
   971.000    0.4080
   972.000    0.3840
   973.000    0.3689
   974.000    0.3616
   975.000    0.3613
   976.000    0.3676
   977.000    0.3807
   978.000    0.4010
   979.000    0.4296
   980.000    0.4679
   981.000    0.5181
   982.000    0.5832
   983.000    0.6669
   984.000    0.7739
   985.000    0.9091
   986.000    1.0754
   987.000    1.2693
   988.000    1.4739
   989.000    1.6537
   990.000    1.7628
   991.000    1.7711
   992.000    1.6884
   993.000    1.5575
   994.000    1.4263
   995.000    1.3260
   996.000    1.2682
   997.000    1.2486
   998.000    1.2497
   999.000    1.2434
  1000.000    1.2033
  1001.000    1.1204
  1002.000    1.0081
  1003.000    0.8893
  1004.000    0.7814
  1005.000    0.6926
  1006.000    0.6245
  1007.000    0.5757
  1008.000    0.5442
  1009.000    0.5284
  1010.000    0.5277
  1011.000    0.5421
  1012.000    0.5727
  1013.000    0.6209
  1014.000    0.6878
  1015.000    0.7713
  1016.000    0.8629
  1017.000    0.9436
  1018.000    0.9876
  1019.000    0.9771
  1020.000    0.9169
  1021.000    0.8307
  1022.000    0.7428
  1023.000    0.6682
  1024.000    0.6124
  1025.000    0.5761
  1026.000    0.5584
  1027.000    0.5585
  1028.000    0.5765
  1029.000    0.6134
  1030.000    0.6716
  1031.000    0.7545
  1032.000    0.8658
  1033.000    1.0072
  1034.000    1.1744
  1035.000    1.3503
  1036.000    1.5011
  1037.000    1.5848
  1038.000    1.5722
  1039.000    1.4653
  1040.000    1.2958
  1041.000    1.1056
  1042.000    0.9258
  1043.000    0.7714
  1044.000    0.6451
  1045.000    0.5440
  1046.000    0.4636
  1047.000    0.3994
  1048.000    0.3479
  1049.000    0.3061
  1050.000    0.2719
  1051.000    0.2436
  1052.000    0.2200
  1053.000    0.2001
  1054.000    0.1832
  1055.000    0.1687
  1056.000    0.1562
  1057.000    0.1454
  1058.000    0.1359
  1059.000    0.1275
  1060.000    0.1202
  1061.000    0.1136
  1062.000    0.1078
  1063.000    0.1026
  1064.000    0.0979
  1065.000    0.0937
  1066.000    0.0899
  1067.000    0.0864
  1068.000    0.0833
  1069.000    0.0804
  1070.000    0.0778
  1071.000    0.0755
  1072.000    0.0733
  1073.000    0.0713
  1074.000    0.0695
  1075.000    0.0679
  1076.000    0.0664
  1077.000    0.0650
  1078.000    0.0637
  1079.000    0.0626
  1080.000    0.0615
  1081.000    0.0606
  1082.000    0.0597
  1083.000    0.0590
  1084.000    0.0583
  1085.000    0.0577
  1086.000    0.0571
  1087.000    0.0567
  1088.000    0.0563
  1089.000    0.0560
  1090.000    0.0558
  1091.000    0.0556
  1092.000    0.0555
  1093.000    0.0554
  1094.000    0.0555
  1095.000    0.0556
  1096.000    0.0557
  1097.000    0.0559
  1098.000    0.0562
  1099.000    0.0566
  1100.000    0.0571
  1101.000    0.0576
  1102.000    0.0582
  1103.000    0.0589
  1104.000    0.0597
  1105.000    0.0606
  1106.000    0.0616
  1107.000    0.0627
  1108.000    0.0639
  1109.000    0.0653
  1110.000    0.0668
  1111.000    0.0685
  1112.000    0.0703
  1113.000    0.0724
  1114.000    0.0747
  1115.000    0.0772
  1116.000    0.0800
  1117.000    0.0831
  1118.000    0.0865
  1119.000    0.0904
  1120.000    0.0948
  1121.000    0.0997
  1122.000    0.1053
  1123.000    0.1116
  1124.000    0.1188
  1125.000    0.1272
  1126.000    0.1369
  1127.000    0.1482
  1128.000    0.1616
  1129.000    0.1775
  1130.000    0.1966
  1131.000    0.2198
  1132.000    0.2482
  1133.000    0.2834
  1134.000    0.3274
  1135.000    0.3824
  1136.000    0.4510
  1137.000    0.5349
  1138.000    0.6328
  1139.000    0.7365
  1140.000    0.8272
  1141.000    0.8790
  1142.000    0.8741
  1143.000    0.8178
  1144.000    0.7341
  1145.000    0.6473
  1146.000    0.5717
  1147.000    0.5128
  1148.000    0.4704
  1149.000    0.4431
  1150.000    0.4289
  1151.000    0.4264
  1152.000    0.4349
  1153.000    0.4546
  1154.000    0.4862
  1155.000    0.5313
  1156.000    0.5924
  1157.000    0.6730
  1158.000    0.7772
  1159.000    0.9094
  1160.000    1.0715
  1161.000    1.2594
  1162.000    1.4573
  1163.000    1.6372
  1164.000    1.7676
  1165.000    1.8284
  1166.000    1.8187
  1167.000    1.7553
  1168.000    1.6612
  1169.000    1.5552
  1170.000    1.4514
  1171.000    1.3571
  1172.000    1.2699
  1173.000    1.1805
  1174.000    1.0830
  1175.000    0.9800
  1176.000    0.8787
  1177.000    0.7869
  1178.000    0.7104
  1179.000    0.6522
  1180.000    0.6127
  1181.000    0.5915
  1182.000    0.5880
  1183.000    0.6026
  1184.000    0.6362
  1185.000    0.6906
  1186.000    0.7672
  1187.000    0.8649
  1188.000    0.9764
  1189.000    1.0844
  1190.000    1.1645
  1191.000    1.2004
  1192.000    1.1988
  1193.000    1.1834
  1194.000    1.1749
  1195.000    1.1755
  1196.000    1.1678
  1197.000    1.1273
  1198.000    1.0424
  1199.000    0.9240
  1200.000    0.7949
  1201.000    0.6739
  1202.000    0.5699
  1203.000    0.4845
  1204.000    0.4157
  1205.000    0.3605
  1206.000    0.3162
  1207.000    0.2804
  1208.000    0.2511
  1209.000    0.2271
  1210.000    0.2071
  1211.000    0.1905
  1212.000    0.1765
  1213.000    0.1646
  1214.000    0.1546
  1215.000    0.1461
  1216.000    0.1389
  1217.000    0.1328
  1218.000    0.1277
  1219.000    0.1235
  1220.000    0.1201
  1221.000    0.1174
  1222.000    0.1154
  1223.000    0.1141
  1224.000    0.1136
  1225.000    0.1137
  1226.000    0.1145
  1227.000    0.1162
  1228.000    0.1187
  1229.000    0.1223
  1230.000    0.1270
  1231.000    0.1330
  1232.000    0.1407
  1233.000    0.1504
  1234.000    0.1625
  1235.000    0.1777
  1236.000    0.1968
  1237.000    0.2210
  1238.000    0.2516
  1239.000    0.2907
  1240.000    0.3405
  1241.000    0.4034
  1242.000    0.4813
  1243.000    0.5729
  1244.000    0.6705
  1245.000    0.7559
  1246.000    0.8034
  1247.000    0.7941
  1248.000    0.7316
  1249.000    0.6390
  1250.000    0.5408
  1251.000    0.4518
  1252.000    0.3774
  1253.000    0.3176
  1254.000    0.2702
  1255.000    0.2327
  1256.000    0.2030
  1257.000    0.1792
  1258.000    0.1601
  1259.000    0.1446
  1260.000    0.1319
  1261.000    0.1214
  1262.000    0.1127
  1263.000    0.1054
  1264.000    0.0993
  1265.000    0.0942
  1266.000    0.0899
  1267.000    0.0863
  1268.000    0.0833
  1269.000    0.0808
  1270.000    0.0788
  1271.000    0.0771
  1272.000    0.0759
  1273.000    0.0750
  1274.000    0.0744
  1275.000    0.0741
  1276.000    0.0742
  1277.000    0.0745
  1278.000    0.0751
  1279.000    0.0760
  1280.000    0.0773
  1281.000    0.0789
  1282.000    0.0809
  1283.000    0.0833
  1284.000    0.0862
  1285.000    0.0895
  1286.000    0.0935
  1287.000    0.0982
  1288.000    0.1037
  1289.000    0.1101
  1290.000    0.1177
  1291.000    0.1267
  1292.000    0.1374
  1293.000    0.1502
  1294.000    0.1656
  1295.000    0.1845
  1296.000    0.2075
  1297.000    0.2361
  1298.000    0.2716
  1299.000    0.3158
  1300.000    0.3706
  1301.000    0.4369
  1302.000    0.5138
  1303.000    0.5963
  1304.000    0.6749
  1305.000    0.7392
  1306.000    0.7820
  1307.000    0.8018
  1308.000    0.8013
  1309.000    0.7840
  1310.000    0.7557
  1311.000    0.7247
  1312.000    0.6998
  1313.000    0.6866
  1314.000    0.6850
  1315.000    0.6893
  1316.000    0.6925
  1317.000    0.6896
  1318.000    0.6795
  1319.000    0.6622
  1320.000    0.6370
  1321.000    0.6035
  1322.000    0.5626
  1323.000    0.5167
  1324.000    0.4693
  1325.000    0.4242
  1326.000    0.3850
  1327.000    0.3534
  1328.000    0.3290
  1329.000    0.3097
  1330.000    0.2926
  1331.000    0.2756
  1332.000    0.2579
  1333.000    0.2393
  1334.000    0.2206
  1335.000    0.2022
  1336.000    0.1848
  1337.000    0.1688
  1338.000    0.1543
  1339.000    0.1417
  1340.000    0.1310
  1341.000    0.1220
  1342.000    0.1148
  1343.000    0.1090
  1344.000    0.1044
  1345.000    0.1008
  1346.000    0.0981
  1347.000    0.0962
  1348.000    0.0950
  1349.000    0.0944
  1350.000    0.0943
  1351.000    0.0949
  1352.000    0.0960
  1353.000    0.0977
  1354.000    0.1001
  1355.000    0.1031
  1356.000    0.1070
  1357.000    0.1117
  1358.000    0.1174
  1359.000    0.1244
  1360.000    0.1329
  1361.000    0.1431
  1362.000    0.1556
  1363.000    0.1710
  1364.000    0.1899
  1365.000    0.2135
  1366.000    0.2429
  1367.000    0.2798
  1368.000    0.3260
  1369.000    0.3830
  1370.000    0.4507
  1371.000    0.5260
  1372.000    0.6006
  1373.000    0.6625
  1374.000    0.7001
  1375.000    0.7084
  1376.000    0.6893
  1377.000    0.6502
  1378.000    0.6009
  1379.000    0.5500
  1380.000    0.5022
  1381.000    0.4576
  1382.000    0.4150
  1383.000    0.3747
  1384.000    0.3384
  1385.000    0.3081
  1386.000    0.2845
  1387.000    0.2675
  1388.000    0.2566
  1389.000    0.2511
  1390.000    0.2506
  1391.000    0.2549
  1392.000    0.2641
  1393.000    0.2786
  1394.000    0.2991
  1395.000    0.3268
  1396.000    0.3632
  1397.000    0.4105
  1398.000    0.4710
  1399.000    0.5471
  1400.000    0.6390
  1401.000    0.7424
  1402.000    0.8436
  1403.000    0.9189
  1404.000    0.9444
  1405.000    0.9139
  1406.000    0.8450
  1407.000    0.7643
  1408.000    0.6916
  1409.000    0.6362
  1410.000    0.6009
  1411.000    0.5851
  1412.000    0.5881
  1413.000    0.6098
  1414.000    0.6510
  1415.000    0.7140
  1416.000    0.8024
  1417.000    0.9211
  1418.000    1.0752
  1419.000    1.2677
  1420.000    1.4944
  1421.000    1.7365
  1422.000    1.9566
  1423.000    2.1084
  1424.000    2.1588
  1425.000    2.1042
  1426.000    1.9663
  1427.000    1.7767
  1428.000    1.5659
  1429.000    1.3585
  1430.000    1.1693
  1431.000    1.0053
  1432.000    0.8681
  1433.000    0.7566
  1434.000    0.6687
  1435.000    0.6018
  1436.000    0.5533
  1437.000    0.5210
  1438.000    0.5037
  1439.000    0.5009
  1440.000    0.5129
  1441.000    0.5409
  1442.000    0.5864
  1443.000    0.6500
  1444.000    0.7292
  1445.000    0.8140
  1446.000    0.8837
  1447.000    0.9121
  1448.000    0.8834
  1449.000    0.8059
  1450.000    0.7045
  1451.000    0.6021
  1452.000    0.5115
  1453.000    0.4365
  1454.000    0.3764
  1455.000    0.3288
  1456.000    0.2913
  1457.000    0.2618
  1458.000    0.2385
  1459.000    0.2202
  1460.000    0.2059
  1461.000    0.1950
  1462.000    0.1870
  1463.000    0.1816
  1464.000    0.1786
  1465.000    0.1780
  1466.000    0.1797
  1467.000    0.1839
  1468.000    0.1911
  1469.000    0.2015
  1470.000    0.2160
  1471.000    0.2354
  1472.000    0.2610
  1473.000    0.2946
  1474.000    0.3382
  1475.000    0.3942
  1476.000    0.4647
  1477.000    0.5497
  1478.000    0.6442
  1479.000    0.7341
  1480.000    0.7960
  1481.000    0.8075
  1482.000    0.7636
  1483.000    0.6806
  1484.000    0.5829
  1485.000    0.4892
  1486.000    0.4085
  1487.000    0.3424
  1488.000    0.2896
  1489.000    0.2478
  1490.000    0.2145
  1491.000    0.1879
  1492.000    0.1665
  1493.000    0.1491
  1494.000    0.1347
  1495.000    0.1229
  1496.000    0.1130
  1497.000    0.1047
  1498.000    0.0976
  1499.000    0.0916
  1500.000    0.0865
  1501.000    0.0822
  1502.000    0.0785
  1503.000    0.0753
  1504.000    0.0726
  1505.000    0.0703
  1506.000    0.0684
  1507.000    0.0668
  1508.000    0.0656
  1509.000    0.0647
  1510.000    0.0640
  1511.000    0.0636
  1512.000    0.0636
  1513.000    0.0638
  1514.000    0.0642
  1515.000    0.0651
  1516.000    0.0662
  1517.000    0.0677
  1518.000    0.0696
  1519.000    0.0720
  1520.000    0.0749
  1521.000    0.0783
  1522.000    0.0825
  1523.000    0.0876
  1524.000    0.0936
  1525.000    0.1009
  1526.000    0.1097
  1527.000    0.1203
  1528.000    0.1333
  1529.000    0.1492
  1530.000    0.1690
  1531.000    0.1937
  1532.000    0.2247
  1533.000    0.2640
  1534.000    0.3138
  1535.000    0.3767
  1536.000    0.4544
  1537.000    0.5461
  1538.000    0.6443
  1539.000    0.7313
  1540.000    0.7813
  1541.000    0.7746
  1542.000    0.7139
  1543.000    0.6220
  1544.000    0.5237
  1545.000    0.4343
  1546.000    0.3594
  1547.000    0.2991
  1548.000    0.2512
  1549.000    0.2134
  1550.000    0.1834
  1551.000    0.1594
  1552.000    0.1401
  1553.000    0.1243
  1554.000    0.1113
  1555.000    0.1005
  1556.000    0.0915
  1557.000    0.0839
  1558.000    0.0775
  1559.000    0.0720
  1560.000    0.0673
  1561.000    0.0632
  1562.000    0.0596
  1563.000    0.0566
  1564.000    0.0539
  1565.000    0.0515
  1566.000    0.0495
  1567.000    0.0477
  1568.000    0.0461
  1569.000    0.0447
  1570.000    0.0436
  1571.000    0.0425
  1572.000    0.0417
  1573.000    0.0409
  1574.000    0.0403
  1575.000    0.0398
  1576.000    0.0394
  1577.000    0.0392
  1578.000    0.0390
  1579.000    0.0389
  1580.000    0.0390
  1581.000    0.0391
  1582.000    0.0394
  1583.000    0.0397
  1584.000    0.0402
  1585.000    0.0407
  1586.000    0.0414
  1587.000    0.0423
  1588.000    0.0432
  1589.000    0.0443
  1590.000    0.0456
  1591.000    0.0471
  1592.000    0.0487
  1593.000    0.0506
  1594.000    0.0528
  1595.000    0.0552
  1596.000    0.0580
  1597.000    0.0612
  1598.000    0.0648
  1599.000    0.0690
  1600.000    0.0738
  1601.000    0.0793
  1602.000    0.0858
  1603.000    0.0934
  1604.000    0.1024
  1605.000    0.1131
  1606.000    0.1259
  1607.000    0.1414
  1608.000    0.1603
  1609.000    0.1835
  1610.000    0.2122
  1611.000    0.2473
  1612.000    0.2896
  1613.000    0.3390
  1614.000    0.3936
  1615.000    0.4508
  1616.000    0.5091
  1617.000    0.5690
  1618.000    0.6287
  1619.000    0.6813
  1620.000    0.7176
  1621.000    0.7343
  1622.000    0.7354
  1623.000    0.7235
  1624.000    0.6947
  1625.000    0.6456
  1626.000    0.5814
  1627.000    0.5138
  1628.000    0.4535
  1629.000    0.4058
  1630.000    0.3723
  1631.000    0.3527
  1632.000    0.3464
  1633.000    0.3531
  1634.000    0.3732
  1635.000    0.4070
  1636.000    0.4542
  1637.000    0.5114
  1638.000    0.5706
  1639.000    0.6185
  1640.000    0.6429
  1641.000    0.6394
  1642.000    0.6107
  1643.000    0.5613
  1644.000    0.4973
  1645.000    0.4277
  1646.000    0.3613
  1647.000    0.3033
  1648.000    0.2551
  1649.000    0.2161
  1650.000    0.1849
  1651.000    0.1597
  1652.000    0.1394
  1653.000    0.1227
  1654.000    0.1091
  1655.000    0.0977
  1656.000    0.0881
  1657.000    0.0799
  1658.000    0.0730
  1659.000    0.0670
  1660.000    0.0618
  1661.000    0.0572
  1662.000    0.0532
  1663.000    0.0496
  1664.000    0.0465
  1665.000    0.0437
  1666.000    0.0411
  1667.000    0.0388
  1668.000    0.0367
  1669.000    0.0349
  1670.000    0.0331
  1671.000    0.0316
  1672.000    0.0301
  1673.000    0.0288
  1674.000    0.0276
  1675.000    0.0264
  1676.000    0.0254
  1677.000    0.0244
  1678.000    0.0235
  1679.000    0.0226
  1680.000    0.0218
  1681.000    0.0211
  1682.000    0.0204
  1683.000    0.0197
  1684.000    0.0191
  1685.000    0.0185
  1686.000    0.0180
  1687.000    0.0175
  1688.000    0.0170
  1689.000    0.0165
  1690.000    0.0160
  1691.000    0.0156
  1692.000    0.0152
  1693.000    0.0148
  1694.000    0.0145
  1695.000    0.0141
  1696.000    0.0138
  1697.000    0.0135
  1698.000    0.0132
  1699.000    0.0129
  1700.000    0.0126
  1701.000    0.0124
  1702.000    0.0121
  1703.000    0.0119
  1704.000    0.0116
  1705.000    0.0114
  1706.000    0.0112
  1707.000    0.0110
  1708.000    0.0108
  1709.000    0.0106
  1710.000    0.0104
  1711.000    0.0102
  1712.000    0.0100
  1713.000    0.0099
  1714.000    0.0097
  1715.000    0.0095
  1716.000    0.0094
  1717.000    0.0092
  1718.000    0.0091
  1719.000    0.0090
  1720.000    0.0088
  1721.000    0.0087
  1722.000    0.0086
  1723.000    0.0085
  1724.000    0.0083
  1725.000    0.0082
  1726.000    0.0081
  1727.000    0.0080
  1728.000    0.0079
  1729.000    0.0078
  1730.000    0.0077
  1731.000    0.0076
  1732.000    0.0075
  1733.000    0.0074
  1734.000    0.0073
  1735.000    0.0072
  1736.000    0.0071
  1737.000    0.0070
  1738.000    0.0070
  1739.000    0.0069
  1740.000    0.0068
  1741.000    0.0067
  1742.000    0.0067
  1743.000    0.0066
  1744.000    0.0065
  1745.000    0.0064
  1746.000    0.0064
  1747.000    0.0063
  1748.000    0.0062
  1749.000    0.0062
  1750.000    0.0061
  1751.000    0.0061
  1752.000    0.0060
  1753.000    0.0059
  1754.000    0.0059
  1755.000    0.0058
  1756.000    0.0058
  1757.000    0.0057
  1758.000    0.0057
  1759.000    0.0056
  1760.000    0.0056
  1761.000    0.0055
  1762.000    0.0055
  1763.000    0.0054
  1764.000    0.0054
  1765.000    0.0053
  1766.000    0.0053
  1767.000    0.0052
  1768.000    0.0052
  1769.000    0.0051
  1770.000    0.0051
  1771.000    0.0051
  1772.000    0.0050
  1773.000    0.0050
  1774.000    0.0049
  1775.000    0.0049
  1776.000    0.0049
  1777.000    0.0048
  1778.000    0.0048
  1779.000    0.0047
  1780.000    0.0047
  1781.000    0.0047
  1782.000    0.0046
  1783.000    0.0046
  1784.000    0.0046
  1785.000    0.0045
  1786.000    0.0045
  1787.000    0.0045
  1788.000    0.0044
  1789.000    0.0044
  1790.000    0.0044
  1791.000    0.0044
  1792.000    0.0043
  1793.000    0.0043
  1794.000    0.0043
  1795.000    0.0042
  1796.000    0.0042
  1797.000    0.0042
  1798.000    0.0041
  1799.000    0.0041
  1800.000    0.0041
  1801.000    0.0041
  1802.000    0.0040
  1803.000    0.0040
  1804.000    0.0040
  1805.000    0.0040
  1806.000    0.0039
  1807.000    0.0039
  1808.000    0.0039
  1809.000    0.0039
  1810.000    0.0038
  1811.000    0.0038
  1812.000    0.0038
  1813.000    0.0038
  1814.000    0.0038
  1815.000    0.0037
  1816.000    0.0037
  1817.000    0.0037
  1818.000    0.0037
  1819.000    0.0037
  1820.000    0.0036
  1821.000    0.0036
  1822.000    0.0036
  1823.000    0.0036
  1824.000    0.0036
  1825.000    0.0035
  1826.000    0.0035
  1827.000    0.0035
  1828.000    0.0035
  1829.000    0.0035
  1830.000    0.0034
  1831.000    0.0034
  1832.000    0.0034
  1833.000    0.0034
  1834.000    0.0034
  1835.000    0.0033
  1836.000    0.0033
  1837.000    0.0033
  1838.000    0.0033
  1839.000    0.0033
  1840.000    0.0033
  1841.000    0.0032
  1842.000    0.0032
  1843.000    0.0032
  1844.000    0.0032
  1845.000    0.0032
  1846.000    0.0032
  1847.000    0.0032
  1848.000    0.0031
  1849.000    0.0031
  1850.000    0.0031
  1851.000    0.0031
  1852.000    0.0031
  1853.000    0.0031
  1854.000    0.0031
  1855.000    0.0030
  1856.000    0.0030
  1857.000    0.0030
  1858.000    0.0030
  1859.000    0.0030
  1860.000    0.0030
  1861.000    0.0030
  1862.000    0.0029
  1863.000    0.0029
  1864.000    0.0029
  1865.000    0.0029
  1866.000    0.0029
  1867.000    0.0029
  1868.000    0.0029
  1869.000    0.0029
  1870.000    0.0028
  1871.000    0.0028
  1872.000    0.0028
  1873.000    0.0028
  1874.000    0.0028
  1875.000    0.0028
  1876.000    0.0028
  1877.000    0.0028
  1878.000    0.0027
  1879.000    0.0027
  1880.000    0.0027
  1881.000    0.0027
  1882.000    0.0027
  1883.000    0.0027
  1884.000    0.0027
  1885.000    0.0027
  1886.000    0.0027
  1887.000    0.0027
  1888.000    0.0026
  1889.000    0.0026
  1890.000    0.0026
  1891.000    0.0026
  1892.000    0.0026
  1893.000    0.0026
  1894.000    0.0026
  1895.000    0.0026
  1896.000    0.0026
  1897.000    0.0025
  1898.000    0.0025
  1899.000    0.0025
  1900.000    0.0025
  1901.000    0.0025
  1902.000    0.0025
  1903.000    0.0025
  1904.000    0.0025
  1905.000    0.0025
  1906.000    0.0025
  1907.000    0.0025
  1908.000    0.0024
  1909.000    0.0024
  1910.000    0.0024
  1911.000    0.0024
  1912.000    0.0024
  1913.000    0.0024
  1914.000    0.0024
  1915.000    0.0024
  1916.000    0.0024
  1917.000    0.0024
  1918.000    0.0024
  1919.000    0.0024
  1920.000    0.0023
  1921.000    0.0023
  1922.000    0.0023
  1923.000    0.0023
  1924.000    0.0023
  1925.000    0.0023
  1926.000    0.0023
  1927.000    0.0023
  1928.000    0.0023
  1929.000    0.0023
  1930.000    0.0023
  1931.000    0.0023
  1932.000    0.0023
  1933.000    0.0022
  1934.000    0.0022
  1935.000    0.0022
  1936.000    0.0022
  1937.000    0.0022
  1938.000    0.0022
  1939.000    0.0022
  1940.000    0.0022
  1941.000    0.0022
  1942.000    0.0022
  1943.000    0.0022
  1944.000    0.0022
  1945.000    0.0022
  1946.000    0.0022
  1947.000    0.0022
  1948.000    0.0021
  1949.000    0.0021
  1950.000    0.0021
  1951.000    0.0021
  1952.000    0.0021
  1953.000    0.0021
  1954.000    0.0021
  1955.000    0.0021
  1956.000    0.0021
  1957.000    0.0021
  1958.000    0.0021
  1959.000    0.0021
  1960.000    0.0021
  1961.000    0.0021
  1962.000    0.0021
  1963.000    0.0021
  1964.000    0.0020
  1965.000    0.0020
  1966.000    0.0020
  1967.000    0.0020
  1968.000    0.0020
  1969.000    0.0020
  1970.000    0.0020
  1971.000    0.0020
  1972.000    0.0020
  1973.000    0.0020
  1974.000    0.0020
  1975.000    0.0020
  1976.000    0.0020
  1977.000    0.0020
  1978.000    0.0020
  1979.000    0.0020
  1980.000    0.0020
  1981.000    0.0019
  1982.000    0.0019
  1983.000    0.0019
  1984.000    0.0019
  1985.000    0.0019
  1986.000    0.0019
  1987.000    0.0019
  1988.000    0.0019
  1989.000    0.0019
  1990.000    0.0019
  1991.000    0.0019
  1992.000    0.0019
  1993.000    0.0019
  1994.000    0.0019
  1995.000    0.0019
  1996.000    0.0019
  1997.000    0.0019
  1998.000    0.0019
  1999.000    0.0019
  2000.000    0.0019
  2001.000    0.0019
  2002.000    0.0018
  2003.000    0.0018
  2004.000    0.0018
  2005.000    0.0018
  2006.000    0.0018
  2007.000    0.0018
  2008.000    0.0018
  2009.000    0.0018
  2010.000    0.0018
  2011.000    0.0018
  2012.000    0.0018
  2013.000    0.0018
  2014.000    0.0018
  2015.000    0.0018
  2016.000    0.0018
  2017.000    0.0018
  2018.000    0.0018
  2019.000    0.0018
  2020.000    0.0018
  2021.000    0.0018
  2022.000    0.0018
  2023.000    0.0018
  2024.000    0.0018
  2025.000    0.0017
  2026.000    0.0017
  2027.000    0.0017
  2028.000    0.0017
  2029.000    0.0017
  2030.000    0.0017
  2031.000    0.0017
  2032.000    0.0017
  2033.000    0.0017
  2034.000    0.0017
  2035.000    0.0017
  2036.000    0.0017
  2037.000    0.0017
  2038.000    0.0017
  2039.000    0.0017
  2040.000    0.0017
  2041.000    0.0017
  2042.000    0.0017
  2043.000    0.0017
  2044.000    0.0017
  2045.000    0.0017
  2046.000    0.0017
  2047.000    0.0017
  2048.000    0.0017
  2049.000    0.0017
  2050.000    0.0017
  2051.000    0.0016
  2052.000    0.0016
  2053.000    0.0016
  2054.000    0.0016
  2055.000    0.0016
  2056.000    0.0016
  2057.000    0.0016
  2058.000    0.0016
  2059.000    0.0016
  2060.000    0.0016
  2061.000    0.0016
  2062.000    0.0016
  2063.000    0.0016
  2064.000    0.0016
  2065.000    0.0016
  2066.000    0.0016
  2067.000    0.0016
  2068.000    0.0016
  2069.000    0.0016
  2070.000    0.0016
  2071.000    0.0016
  2072.000    0.0016
  2073.000    0.0016
  2074.000    0.0016
  2075.000    0.0016
  2076.000    0.0016
  2077.000    0.0016
  2078.000    0.0016
  2079.000    0.0016
  2080.000    0.0016
  2081.000    0.0016
  2082.000    0.0016
  2083.000    0.0015
  2084.000    0.0015
  2085.000    0.0015
  2086.000    0.0015
  2087.000    0.0015
  2088.000    0.0015
  2089.000    0.0015
  2090.000    0.0015
  2091.000    0.0015
  2092.000    0.0015
  2093.000    0.0015
  2094.000    0.0015
  2095.000    0.0015
  2096.000    0.0015
  2097.000    0.0015
  2098.000    0.0015
  2099.000    0.0015
  2100.000    0.0015
  2101.000    0.0015
  2102.000    0.0015
  2103.000    0.0015
  2104.000    0.0015
  2105.000    0.0015
  2106.000    0.0015
  2107.000    0.0015
  2108.000    0.0015
  2109.000    0.0015
  2110.000    0.0015
  2111.000    0.0015
  2112.000    0.0015
  2113.000    0.0015
  2114.000    0.0015
  2115.000    0.0015
  2116.000    0.0015
  2117.000    0.0015
  2118.000    0.0015
  2119.000    0.0015
  2120.000    0.0015
  2121.000    0.0014
  2122.000    0.0014
  2123.000    0.0014
  2124.000    0.0014
  2125.000    0.0014
  2126.000    0.0014
  2127.000    0.0014
  2128.000    0.0014
  2129.000    0.0014
  2130.000    0.0014
  2131.000    0.0014
  2132.000    0.0014
  2133.000    0.0014
  2134.000    0.0014
  2135.000    0.0014
  2136.000    0.0014
  2137.000    0.0014
  2138.000    0.0014
  2139.000    0.0014
  2140.000    0.0014
  2141.000    0.0014
  2142.000    0.0014
  2143.000    0.0014
  2144.000    0.0014
  2145.000    0.0014
  2146.000    0.0014
  2147.000    0.0014
  2148.000    0.0014
  2149.000    0.0014
  2150.000    0.0014
  2151.000    0.0014
  2152.000    0.0014
  2153.000    0.0014
  2154.000    0.0014
  2155.000    0.0014
  2156.000    0.0014
  2157.000    0.0014
  2158.000    0.0014
  2159.000    0.0014
  2160.000    0.0014
  2161.000    0.0014
  2162.000    0.0014
  2163.000    0.0014
  2164.000    0.0014
  2165.000    0.0014
  2166.000    0.0014
  2167.000    0.0014
  2168.000    0.0014
  2169.000    0.0014
  2170.000    0.0014
  2171.000    0.0013
  2172.000    0.0013
  2173.000    0.0013
  2174.000    0.0013
  2175.000    0.0013
  2176.000    0.0013
  2177.000    0.0013
  2178.000    0.0013
  2179.000    0.0013
  2180.000    0.0013
  2181.000    0.0013
  2182.000    0.0013
  2183.000    0.0013
  2184.000    0.0013
  2185.000    0.0013
  2186.000    0.0013
  2187.000    0.0013
  2188.000    0.0013
  2189.000    0.0013
  2190.000    0.0013
  2191.000    0.0013
  2192.000    0.0013
  2193.000    0.0013
  2194.000    0.0013
  2195.000    0.0013
  2196.000    0.0013
  2197.000    0.0013
  2198.000    0.0013
  2199.000    0.0013
  2200.000    0.0013
  2201.000    0.0013
  2202.000    0.0013
  2203.000    0.0013
  2204.000    0.0013
  2205.000    0.0013
  2206.000    0.0013
  2207.000    0.0013
  2208.000    0.0013
  2209.000    0.0013
  2210.000    0.0013
  2211.000    0.0013
  2212.000    0.0013
  2213.000    0.0013
  2214.000    0.0013
  2215.000    0.0013
  2216.000    0.0013
  2217.000    0.0013
  2218.000    0.0013
  2219.000    0.0013
  2220.000    0.0013
  2221.000    0.0013
  2222.000    0.0013
  2223.000    0.0013
  2224.000    0.0013
  2225.000    0.0013
  2226.000    0.0013
  2227.000    0.0013
  2228.000    0.0013
  2229.000    0.0013
  2230.000    0.0013
  2231.000    0.0013
  2232.000    0.0013
  2233.000    0.0013
  2234.000    0.0013
  2235.000    0.0013
  2236.000    0.0013
  2237.000    0.0013
  2238.000    0.0013
  2239.000    0.0013
  2240.000    0.0013
  2241.000    0.0013
  2242.000    0.0013
  2243.000    0.0013
  2244.000    0.0013
  2245.000    0.0013
  2246.000    0.0013
  2247.000    0.0013
  2248.000    0.0013
  2249.000    0.0013
  2250.000    0.0012
  2251.000    0.0012
  2252.000    0.0012
  2253.000    0.0012
  2254.000    0.0012
  2255.000    0.0012
  2256.000    0.0012
  2257.000    0.0012
  2258.000    0.0012
  2259.000    0.0012
  2260.000    0.0012
  2261.000    0.0012
  2262.000    0.0012
  2263.000    0.0012
  2264.000    0.0012
  2265.000    0.0012
  2266.000    0.0012
  2267.000    0.0012
  2268.000    0.0012
  2269.000    0.0012
  2270.000    0.0012
  2271.000    0.0012
  2272.000    0.0012
  2273.000    0.0012
  2274.000    0.0012
  2275.000    0.0012
  2276.000    0.0012
  2277.000    0.0012
  2278.000    0.0012
  2279.000    0.0012
  2280.000    0.0012
  2281.000    0.0012
  2282.000    0.0012
  2283.000    0.0012
  2284.000    0.0012
  2285.000    0.0012
  2286.000    0.0012
  2287.000    0.0012
  2288.000    0.0012
  2289.000    0.0012
  2290.000    0.0012
  2291.000    0.0012
  2292.000    0.0012
  2293.000    0.0012
  2294.000    0.0012
  2295.000    0.0012
  2296.000    0.0012
  2297.000    0.0012
  2298.000    0.0012
  2299.000    0.0012
  2300.000    0.0012
  2301.000    0.0012
  2302.000    0.0012
  2303.000    0.0012
  2304.000    0.0012
  2305.000    0.0012
  2306.000    0.0012
  2307.000    0.0012
  2308.000    0.0012
  2309.000    0.0012
  2310.000    0.0012
  2311.000    0.0012
  2312.000    0.0012
  2313.000    0.0012
  2314.000    0.0012
  2315.000    0.0012
  2316.000    0.0012
  2317.000    0.0012
  2318.000    0.0012
  2319.000    0.0012
  2320.000    0.0012
  2321.000    0.0012
  2322.000    0.0012
  2323.000    0.0012
  2324.000    0.0012
  2325.000    0.0012
  2326.000    0.0012
  2327.000    0.0012
  2328.000    0.0012
  2329.000    0.0012
  2330.000    0.0012
  2331.000    0.0012
  2332.000    0.0012
  2333.000    0.0012
  2334.000    0.0012
  2335.000    0.0012
  2336.000    0.0012
  2337.000    0.0012
  2338.000    0.0012
  2339.000    0.0012
  2340.000    0.0012
  2341.000    0.0012
  2342.000    0.0012
  2343.000    0.0012
  2344.000    0.0012
  2345.000    0.0012
  2346.000    0.0012
  2347.000    0.0012
  2348.000    0.0012
  2349.000    0.0012
  2350.000    0.0012
  2351.000    0.0012
  2352.000    0.0012
  2353.000    0.0012
  2354.000    0.0012
  2355.000    0.0012
  2356.000    0.0012
  2357.000    0.0012
  2358.000    0.0012
  2359.000    0.0012
  2360.000    0.0012
  2361.000    0.0012
  2362.000    0.0012
  2363.000    0.0012
  2364.000    0.0012
  2365.000    0.0012
  2366.000    0.0012
  2367.000    0.0012
  2368.000    0.0012
  2369.000    0.0012
  2370.000    0.0012
  2371.000    0.0012
  2372.000    0.0012
  2373.000    0.0012
  2374.000    0.0012
  2375.000    0.0012
  2376.000    0.0012
  2377.000    0.0012
  2378.000    0.0012
  2379.000    0.0012
  2380.000    0.0012
  2381.000    0.0012
  2382.000    0.0012
  2383.000    0.0012
  2384.000    0.0012
  2385.000    0.0012
  2386.000    0.0012
  2387.000    0.0012
  2388.000    0.0012
  2389.000    0.0012
  2390.000    0.0012
  2391.000    0.0012
  2392.000    0.0012
  2393.000    0.0012
  2394.000    0.0012
  2395.000    0.0012
  2396.000    0.0012
  2397.000    0.0012
  2398.000    0.0012
  2399.000    0.0012
  2400.000    0.0012
  2401.000    0.0012
  2402.000    0.0012
  2403.000    0.0012
  2404.000    0.0012
  2405.000    0.0012
  2406.000    0.0012
  2407.000    0.0012
  2408.000    0.0012
  2409.000    0.0012
  2410.000    0.0012
  2411.000    0.0012
  2412.000    0.0012
  2413.000    0.0012
  2414.000    0.0012
  2415.000    0.0012
  2416.000    0.0012
  2417.000    0.0012
  2418.000    0.0012
  2419.000    0.0012
  2420.000    0.0012
  2421.000    0.0012
  2422.000    0.0013
  2423.000    0.0013
  2424.000    0.0013
  2425.000    0.0013
  2426.000    0.0013
  2427.000    0.0013
  2428.000    0.0013
  2429.000    0.0013
  2430.000    0.0013
  2431.000    0.0013
  2432.000    0.0013
  2433.000    0.0013
  2434.000    0.0013
  2435.000    0.0013
  2436.000    0.0013
  2437.000    0.0013
  2438.000    0.0013
  2439.000    0.0013
  2440.000    0.0013
  2441.000    0.0013
  2442.000    0.0013
  2443.000    0.0013
  2444.000    0.0013
  2445.000    0.0013
  2446.000    0.0013
  2447.000    0.0013
  2448.000    0.0013
  2449.000    0.0013
  2450.000    0.0013
  2451.000    0.0013
  2452.000    0.0013
  2453.000    0.0013
  2454.000    0.0013
  2455.000    0.0013
  2456.000    0.0013
  2457.000    0.0013
  2458.000    0.0013
  2459.000    0.0013
  2460.000    0.0013
  2461.000    0.0013
  2462.000    0.0013
  2463.000    0.0013
  2464.000    0.0013
  2465.000    0.0013
  2466.000    0.0013
  2467.000    0.0013
  2468.000    0.0013
  2469.000    0.0013
  2470.000    0.0013
  2471.000    0.0013
  2472.000    0.0013
  2473.000    0.0013
  2474.000    0.0013
  2475.000    0.0013
  2476.000    0.0013
  2477.000    0.0013
  2478.000    0.0013
  2479.000    0.0013
  2480.000    0.0013
  2481.000    0.0013
  2482.000    0.0013
  2483.000    0.0013
  2484.000    0.0013
  2485.000    0.0013
  2486.000    0.0014
  2487.000    0.0014
  2488.000    0.0014
  2489.000    0.0014
  2490.000    0.0014
  2491.000    0.0014
  2492.000    0.0014
  2493.000    0.0014
  2494.000    0.0014
  2495.000    0.0014
  2496.000    0.0014
  2497.000    0.0014
  2498.000    0.0014
  2499.000    0.0014
  2500.000    0.0014
  2501.000    0.0014
  2502.000    0.0014
  2503.000    0.0014
  2504.000    0.0014
  2505.000    0.0014
  2506.000    0.0014
  2507.000    0.0014
  2508.000    0.0014
  2509.000    0.0014
  2510.000    0.0014
  2511.000    0.0014
  2512.000    0.0014
  2513.000    0.0014
  2514.000    0.0014
  2515.000    0.0014
  2516.000    0.0014
  2517.000    0.0014
  2518.000    0.0014
  2519.000    0.0014
  2520.000    0.0014
  2521.000    0.0014
  2522.000    0.0014
  2523.000    0.0014
  2524.000    0.0015
  2525.000    0.0015
  2526.000    0.0015
  2527.000    0.0015
  2528.000    0.0015
  2529.000    0.0015
  2530.000    0.0015
  2531.000    0.0015
  2532.000    0.0015
  2533.000    0.0015
  2534.000    0.0015
  2535.000    0.0015
  2536.000    0.0015
  2537.000    0.0015
  2538.000    0.0015
  2539.000    0.0015
  2540.000    0.0015
  2541.000    0.0015
  2542.000    0.0015
  2543.000    0.0015
  2544.000    0.0015
  2545.000    0.0015
  2546.000    0.0015
  2547.000    0.0015
  2548.000    0.0015
  2549.000    0.0015
  2550.000    0.0015
  2551.000    0.0016
  2552.000    0.0016
  2553.000    0.0016
  2554.000    0.0016
  2555.000    0.0016
  2556.000    0.0016
  2557.000    0.0016
  2558.000    0.0016
  2559.000    0.0016
  2560.000    0.0016
  2561.000    0.0016
  2562.000    0.0016
  2563.000    0.0016
  2564.000    0.0016
  2565.000    0.0016
  2566.000    0.0016
  2567.000    0.0016
  2568.000    0.0016
  2569.000    0.0016
  2570.000    0.0016
  2571.000    0.0016
  2572.000    0.0016
  2573.000    0.0017
  2574.000    0.0017
  2575.000    0.0017
  2576.000    0.0017
  2577.000    0.0017
  2578.000    0.0017
  2579.000    0.0017
  2580.000    0.0017
  2581.000    0.0017
  2582.000    0.0017
  2583.000    0.0017
  2584.000    0.0017
  2585.000    0.0017
  2586.000    0.0017
  2587.000    0.0017
  2588.000    0.0017
  2589.000    0.0017
  2590.000    0.0017
  2591.000    0.0018
  2592.000    0.0018
  2593.000    0.0018
  2594.000    0.0018
  2595.000    0.0018
  2596.000    0.0018
  2597.000    0.0018
  2598.000    0.0018
  2599.000    0.0018
  2600.000    0.0018
  2601.000    0.0018
  2602.000    0.0018
  2603.000    0.0018
  2604.000    0.0018
  2605.000    0.0018
  2606.000    0.0018
  2607.000    0.0019
  2608.000    0.0019
  2609.000    0.0019
  2610.000    0.0019
  2611.000    0.0019
  2612.000    0.0019
  2613.000    0.0019
  2614.000    0.0019
  2615.000    0.0019
  2616.000    0.0019
  2617.000    0.0019
  2618.000    0.0019
  2619.000    0.0019
  2620.000    0.0020
  2621.000    0.0020
  2622.000    0.0020
  2623.000    0.0020
  2624.000    0.0020
  2625.000    0.0020
  2626.000    0.0020
  2627.000    0.0020
  2628.000    0.0020
  2629.000    0.0020
  2630.000    0.0020
  2631.000    0.0020
  2632.000    0.0021
  2633.000    0.0021
  2634.000    0.0021
  2635.000    0.0021
  2636.000    0.0021
  2637.000    0.0021
  2638.000    0.0021
  2639.000    0.0021
  2640.000    0.0021
  2641.000    0.0021
  2642.000    0.0022
  2643.000    0.0022
  2644.000    0.0022
  2645.000    0.0022
  2646.000    0.0022
  2647.000    0.0022
  2648.000    0.0022
  2649.000    0.0022
  2650.000    0.0022
  2651.000    0.0022
  2652.000    0.0023
  2653.000    0.0023
  2654.000    0.0023
  2655.000    0.0023
  2656.000    0.0023
  2657.000    0.0023
  2658.000    0.0023
  2659.000    0.0023
  2660.000    0.0024
  2661.000    0.0024
  2662.000    0.0024
  2663.000    0.0024
  2664.000    0.0024
  2665.000    0.0024
  2666.000    0.0024
  2667.000    0.0024
  2668.000    0.0025
  2669.000    0.0025
  2670.000    0.0025
  2671.000    0.0025
  2672.000    0.0025
  2673.000    0.0025
  2674.000    0.0025
  2675.000    0.0026
  2676.000    0.0026
  2677.000    0.0026
  2678.000    0.0026
  2679.000    0.0026
  2680.000    0.0026
  2681.000    0.0026
  2682.000    0.0027
  2683.000    0.0027
  2684.000    0.0027
  2685.000    0.0027
  2686.000    0.0027
  2687.000    0.0027
  2688.000    0.0028
  2689.000    0.0028
  2690.000    0.0028
  2691.000    0.0028
  2692.000    0.0028
  2693.000    0.0028
  2694.000    0.0029
  2695.000    0.0029
  2696.000    0.0029
  2697.000    0.0029
  2698.000    0.0029
  2699.000    0.0030
  2700.000    0.0030
  2701.000    0.0030
  2702.000    0.0030
  2703.000    0.0030
  2704.000    0.0031
  2705.000    0.0031
  2706.000    0.0031
  2707.000    0.0031
  2708.000    0.0031
  2709.000    0.0032
  2710.000    0.0032
  2711.000    0.0032
  2712.000    0.0032
  2713.000    0.0032
  2714.000    0.0033
  2715.000    0.0033
  2716.000    0.0033
  2717.000    0.0033
  2718.000    0.0034
  2719.000    0.0034
  2720.000    0.0034
  2721.000    0.0034
  2722.000    0.0035
  2723.000    0.0035
  2724.000    0.0035
  2725.000    0.0035
  2726.000    0.0036
  2727.000    0.0036
  2728.000    0.0036
  2729.000    0.0037
  2730.000    0.0037
  2731.000    0.0037
  2732.000    0.0037
  2733.000    0.0038
  2734.000    0.0038
  2735.000    0.0038
  2736.000    0.0039
  2737.000    0.0039
  2738.000    0.0039
  2739.000    0.0040
  2740.000    0.0040
  2741.000    0.0040
  2742.000    0.0041
  2743.000    0.0041
  2744.000    0.0041
  2745.000    0.0042
  2746.000    0.0042
  2747.000    0.0043
  2748.000    0.0043
  2749.000    0.0043
  2750.000    0.0044
  2751.000    0.0044
  2752.000    0.0044
  2753.000    0.0045
  2754.000    0.0045
  2755.000    0.0046
  2756.000    0.0046
  2757.000    0.0047
  2758.000    0.0047
  2759.000    0.0047
  2760.000    0.0048
  2761.000    0.0048
  2762.000    0.0049
  2763.000    0.0049
  2764.000    0.0050
  2765.000    0.0050
  2766.000    0.0051
  2767.000    0.0051
  2768.000    0.0052
  2769.000    0.0052
  2770.000    0.0053
  2771.000    0.0053
  2772.000    0.0054
  2773.000    0.0055
  2774.000    0.0055
  2775.000    0.0056
  2776.000    0.0056
  2777.000    0.0057
  2778.000    0.0057
  2779.000    0.0058
  2780.000    0.0059
  2781.000    0.0059
  2782.000    0.0060
  2783.000    0.0061
  2784.000    0.0061
  2785.000    0.0062
  2786.000    0.0063
  2787.000    0.0064
  2788.000    0.0064
  2789.000    0.0065
  2790.000    0.0066
  2791.000    0.0067
  2792.000    0.0067
  2793.000    0.0068
  2794.000    0.0069
  2795.000    0.0070
  2796.000    0.0071
  2797.000    0.0072
  2798.000    0.0072
  2799.000    0.0073
  2800.000    0.0074
  2801.000    0.0075
  2802.000    0.0076
  2803.000    0.0077
  2804.000    0.0078
  2805.000    0.0079
  2806.000    0.0080
  2807.000    0.0081
  2808.000    0.0083
  2809.000    0.0084
  2810.000    0.0085
  2811.000    0.0086
  2812.000    0.0087
  2813.000    0.0088
  2814.000    0.0090
  2815.000    0.0091
  2816.000    0.0092
  2817.000    0.0094
  2818.000    0.0095
  2819.000    0.0096
  2820.000    0.0098
  2821.000    0.0099
  2822.000    0.0101
  2823.000    0.0102
  2824.000    0.0104
  2825.000    0.0106
  2826.000    0.0107
  2827.000    0.0109
  2828.000    0.0111
  2829.000    0.0113
  2830.000    0.0114
  2831.000    0.0116
  2832.000    0.0118
  2833.000    0.0120
  2834.000    0.0122
  2835.000    0.0124
  2836.000    0.0127
  2837.000    0.0129
  2838.000    0.0131
  2839.000    0.0133
  2840.000    0.0136
  2841.000    0.0138
  2842.000    0.0141
  2843.000    0.0143
  2844.000    0.0146
  2845.000    0.0149
  2846.000    0.0152
  2847.000    0.0155
  2848.000    0.0158
  2849.000    0.0161
  2850.000    0.0164
  2851.000    0.0167
  2852.000    0.0171
  2853.000    0.0174
  2854.000    0.0178
  2855.000    0.0182
  2856.000    0.0186
  2857.000    0.0190
  2858.000    0.0194
  2859.000    0.0198
  2860.000    0.0202
  2861.000    0.0207
  2862.000    0.0212
  2863.000    0.0217
  2864.000    0.0222
  2865.000    0.0227
  2866.000    0.0233
  2867.000    0.0238
  2868.000    0.0244
  2869.000    0.0250
  2870.000    0.0257
  2871.000    0.0263
  2872.000    0.0270
  2873.000    0.0277
  2874.000    0.0285
  2875.000    0.0293
  2876.000    0.0301
  2877.000    0.0309
  2878.000    0.0318
  2879.000    0.0327
  2880.000    0.0337
  2881.000    0.0347
  2882.000    0.0357
  2883.000    0.0368
  2884.000    0.0379
  2885.000    0.0391
  2886.000    0.0404
  2887.000    0.0417
  2888.000    0.0431
  2889.000    0.0446
  2890.000    0.0461
  2891.000    0.0477
  2892.000    0.0494
  2893.000    0.0512
  2894.000    0.0531
  2895.000    0.0551
  2896.000    0.0573
  2897.000    0.0595
  2898.000    0.0619
  2899.000    0.0644
  2900.000    0.0671
  2901.000    0.0700
  2902.000    0.0731
  2903.000    0.0763
  2904.000    0.0798
  2905.000    0.0835
  2906.000    0.0875
  2907.000    0.0918
  2908.000    0.0964
  2909.000    0.1014
  2910.000    0.1068
  2911.000    0.1126
  2912.000    0.1189
  2913.000    0.1257
  2914.000    0.1331
  2915.000    0.1412
  2916.000    0.1501
  2917.000    0.1598
  2918.000    0.1705
  2919.000    0.1824
  2920.000    0.1954
  2921.000    0.2099
  2922.000    0.2261
  2923.000    0.2442
  2924.000    0.2646
  2925.000    0.2876
  2926.000    0.3136
  2927.000    0.3433
  2928.000    0.3774
  2929.000    0.4167
  2930.000    0.4623
  2931.000    0.5156
  2932.000    0.5783
  2933.000    0.6528
  2934.000    0.7421
  2935.000    0.8499
  2936.000    0.9814
  2937.000    1.1434
  2938.000    1.3447
  2939.000    1.5967
  2940.000    1.9134
  2941.000    2.3103
  2942.000    2.8004
  2943.000    3.3852
  2944.000    4.0397
  2945.000    4.6989
  2946.000    5.2611
  2947.000    5.6137
  2948.000    5.6726
  2949.000    5.4172
  2950.000    4.9055
  2951.000    4.2517
  2952.000    3.5756
  2953.000    2.9595
  2954.000    2.4384
  2955.000    2.0151
  2956.000    1.6773
  2957.000    1.4089
  2958.000    1.1949
  2959.000    1.0230
  2960.000    0.8839
  2961.000    0.7701
  2962.000    0.6762
  2963.000    0.5979
  2964.000    0.5322
  2965.000    0.4764
  2966.000    0.4288
  2967.000    0.3879
  2968.000    0.3525
  2969.000    0.3216
  2970.000    0.2946
  2971.000    0.2708
  2972.000    0.2498
  2973.000    0.2311
  2974.000    0.2144
  2975.000    0.1994
  2976.000    0.1859
  2977.000    0.1738
  2978.000    0.1628
  2979.000    0.1528
  2980.000    0.1437
  2981.000    0.1354
  2982.000    0.1277
  2983.000    0.1207
  2984.000    0.1143
  2985.000    0.1084
  2986.000    0.1029
  2987.000    0.0978
  2988.000    0.0931
  2989.000    0.0887
  2990.000    0.0846
  2991.000    0.0808
  2992.000    0.0773
  2993.000    0.0739
  2994.000    0.0708
  2995.000    0.0679
  2996.000    0.0652
  2997.000    0.0626
  2998.000    0.0602
  2999.000    0.0579
  3000.000    0.0557
  3001.000    0.0537
  3002.000    0.0517
  3003.000    0.0499
  3004.000    0.0482
  3005.000    0.0465
  3006.000    0.0450
  3007.000    0.0435
  3008.000    0.0421
  3009.000    0.0407
  3010.000    0.0395
  3011.000    0.0382
  3012.000    0.0371
  3013.000    0.0360
  3014.000    0.0349
  3015.000    0.0339
  3016.000    0.0329
  3017.000    0.0320
  3018.000    0.0311
  3019.000    0.0303
  3020.000    0.0294
  3021.000    0.0286
  3022.000    0.0279
  3023.000    0.0272
  3024.000    0.0265
  3025.000    0.0258
  3026.000    0.0252
  3027.000    0.0245
  3028.000    0.0239
  3029.000    0.0234
  3030.000    0.0228
  3031.000    0.0223
  3032.000    0.0218
  3033.000    0.0213
  3034.000    0.0208
  3035.000    0.0203
  3036.000    0.0199
  3037.000    0.0194
  3038.000    0.0190
  3039.000    0.0186
  3040.000    0.0182
  3041.000    0.0178
  3042.000    0.0175
  3043.000    0.0171
  3044.000    0.0168
  3045.000    0.0164
  3046.000    0.0161
  3047.000    0.0158
  3048.000    0.0155
  3049.000    0.0152
  3050.000    0.0149
  3051.000    0.0146
  3052.000    0.0144
  3053.000    0.0141
  3054.000    0.0138
  3055.000    0.0136
  3056.000    0.0133
  3057.000    0.0131
  3058.000    0.0129
  3059.000    0.0126
  3060.000    0.0124
  3061.000    0.0122
  3062.000    0.0120
  3063.000    0.0118
  3064.000    0.0116
  3065.000    0.0114
  3066.000    0.0112
  3067.000    0.0111
  3068.000    0.0109
  3069.000    0.0107
  3070.000    0.0105
  3071.000    0.0104
  3072.000    0.0102
  3073.000    0.0101
  3074.000    0.0099
  3075.000    0.0098
  3076.000    0.0096
  3077.000    0.0095
  3078.000    0.0093
  3079.000    0.0092
  3080.000    0.0091
  3081.000    0.0089
  3082.000    0.0088
  3083.000    0.0087
  3084.000    0.0086
  3085.000    0.0084
  3086.000    0.0083
  3087.000    0.0082
  3088.000    0.0081
  3089.000    0.0080
  3090.000    0.0079
  3091.000    0.0078
  3092.000    0.0077
  3093.000    0.0076
  3094.000    0.0075
  3095.000    0.0074
  3096.000    0.0073
  3097.000    0.0072
  3098.000    0.0071
  3099.000    0.0070
  3100.000    0.0069
  3101.000    0.0068
  3102.000    0.0067
  3103.000    0.0067
  3104.000    0.0066
  3105.000    0.0065
  3106.000    0.0064
  3107.000    0.0064
  3108.000    0.0063
  3109.000    0.0062
  3110.000    0.0061
  3111.000    0.0061
  3112.000    0.0060
  3113.000    0.0059
  3114.000    0.0059
  3115.000    0.0058
  3116.000    0.0057
  3117.000    0.0057
  3118.000    0.0056
  3119.000    0.0055
  3120.000    0.0055
  3121.000    0.0054
  3122.000    0.0054
  3123.000    0.0053
  3124.000    0.0052
  3125.000    0.0052
  3126.000    0.0051
  3127.000    0.0051
  3128.000    0.0050
  3129.000    0.0050
  3130.000    0.0049
  3131.000    0.0049
  3132.000    0.0048
  3133.000    0.0048
  3134.000    0.0047
  3135.000    0.0047
  3136.000    0.0046
  3137.000    0.0046
  3138.000    0.0045
  3139.000    0.0045
  3140.000    0.0045
  3141.000    0.0044
  3142.000    0.0044
  3143.000    0.0043
  3144.000    0.0043
  3145.000    0.0043
  3146.000    0.0042
  3147.000    0.0042
  3148.000    0.0041
  3149.000    0.0041
  3150.000    0.0041
  3151.000    0.0040
  3152.000    0.0040
  3153.000    0.0040
  3154.000    0.0039
  3155.000    0.0039
  3156.000    0.0038
  3157.000    0.0038
  3158.000    0.0038
  3159.000    0.0038
  3160.000    0.0037
  3161.000    0.0037
  3162.000    0.0037
  3163.000    0.0036
  3164.000    0.0036
  3165.000    0.0036
  3166.000    0.0035
  3167.000    0.0035
  3168.000    0.0035
  3169.000    0.0034
  3170.000    0.0034
  3171.000    0.0034
  3172.000    0.0034
  3173.000    0.0033
  3174.000    0.0033
  3175.000    0.0033
  3176.000    0.0033
  3177.000    0.0032
  3178.000    0.0032
  3179.000    0.0032
  3180.000    0.0032
  3181.000    0.0031
  3182.000    0.0031
  3183.000    0.0031
  3184.000    0.0031
  3185.000    0.0030
  3186.000    0.0030
  3187.000    0.0030
  3188.000    0.0030
  3189.000    0.0030
  3190.000    0.0029
  3191.000    0.0029
  3192.000    0.0029
  3193.000    0.0029
  3194.000    0.0028
  3195.000    0.0028
  3196.000    0.0028
  3197.000    0.0028
  3198.000    0.0028
  3199.000    0.0027
  3200.000    0.0027
  3201.000    0.0027
  3202.000    0.0027
  3203.000    0.0027
  3204.000    0.0027
  3205.000    0.0026
  3206.000    0.0026
  3207.000    0.0026
  3208.000    0.0026
  3209.000    0.0026
  3210.000    0.0025
  3211.000    0.0025
  3212.000    0.0025
  3213.000    0.0025
  3214.000    0.0025
  3215.000    0.0025
  3216.000    0.0024
  3217.000    0.0024
  3218.000    0.0024
  3219.000    0.0024
  3220.000    0.0024
  3221.000    0.0024
  3222.000    0.0024
  3223.000    0.0023
  3224.000    0.0023
  3225.000    0.0023
  3226.000    0.0023
  3227.000    0.0023
  3228.000    0.0023
  3229.000    0.0023
  3230.000    0.0022
  3231.000    0.0022
  3232.000    0.0022
  3233.000    0.0022
  3234.000    0.0022
  3235.000    0.0022
  3236.000    0.0022
  3237.000    0.0022
  3238.000    0.0021
  3239.000    0.0021
  3240.000    0.0021
  3241.000    0.0021
  3242.000    0.0021
  3243.000    0.0021
  3244.000    0.0021
  3245.000    0.0021
  3246.000    0.0020
  3247.000    0.0020
  3248.000    0.0020
  3249.000    0.0020
  3250.000    0.0020
  3251.000    0.0020
  3252.000    0.0020
  3253.000    0.0020
  3254.000    0.0020
  3255.000    0.0019
  3256.000    0.0019
  3257.000    0.0019
  3258.000    0.0019
  3259.000    0.0019
  3260.000    0.0019
  3261.000    0.0019
  3262.000    0.0019
  3263.000    0.0019
  3264.000    0.0019
  3265.000    0.0018
  3266.000    0.0018
  3267.000    0.0018
  3268.000    0.0018
  3269.000    0.0018
  3270.000    0.0018
  3271.000    0.0018
  3272.000    0.0018
  3273.000    0.0018
  3274.000    0.0018
  3275.000    0.0018
  3276.000    0.0017
  3277.000    0.0017
  3278.000    0.0017
  3279.000    0.0017
  3280.000    0.0017
  3281.000    0.0017
  3282.000    0.0017
  3283.000    0.0017
  3284.000    0.0017
  3285.000    0.0017
  3286.000    0.0017
  3287.000    0.0017
  3288.000    0.0017
  3289.000    0.0016
  3290.000    0.0016
  3291.000    0.0016
  3292.000    0.0016
  3293.000    0.0016
  3294.000    0.0016
  3295.000    0.0016
  3296.000    0.0016
  3297.000    0.0016
  3298.000    0.0016
  3299.000    0.0016
  3300.000    0.0016
  3301.000    0.0016
  3302.000    0.0016
  3303.000    0.0015
  3304.000    0.0015
  3305.000    0.0015
  3306.000    0.0015
  3307.000    0.0015
  3308.000    0.0015
  3309.000    0.0015
  3310.000    0.0015
  3311.000    0.0015
  3312.000    0.0015
  3313.000    0.0015
  3314.000    0.0015
  3315.000    0.0015
  3316.000    0.0015
  3317.000    0.0015
  3318.000    0.0015
  3319.000    0.0014
  3320.000    0.0014
  3321.000    0.0014
  3322.000    0.0014
  3323.000    0.0014
  3324.000    0.0014
  3325.000    0.0014
  3326.000    0.0014
  3327.000    0.0014
  3328.000    0.0014
  3329.000    0.0014
  3330.000    0.0014
  3331.000    0.0014
  3332.000    0.0014
  3333.000    0.0014
  3334.000    0.0014
  3335.000    0.0014
  3336.000    0.0014
  3337.000    0.0014
  3338.000    0.0013
  3339.000    0.0013
  3340.000    0.0013
  3341.000    0.0013
  3342.000    0.0013
  3343.000    0.0013
  3344.000    0.0013
  3345.000    0.0013
  3346.000    0.0013
  3347.000    0.0013
  3348.000    0.0013
  3349.000    0.0013
  3350.000    0.0013
  3351.000    0.0013
  3352.000    0.0013
  3353.000    0.0013
  3354.000    0.0013
  3355.000    0.0013
  3356.000    0.0013
  3357.000    0.0013
  3358.000    0.0013
  3359.000    0.0013
  3360.000    0.0013
  3361.000    0.0012
  3362.000    0.0012
  3363.000    0.0012
  3364.000    0.0012
  3365.000    0.0012
  3366.000    0.0012
  3367.000    0.0012
  3368.000    0.0012
  3369.000    0.0012
  3370.000    0.0012
  3371.000    0.0012
  3372.000    0.0012
  3373.000    0.0012
  3374.000    0.0012
  3375.000    0.0012
  3376.000    0.0012
  3377.000    0.0012
  3378.000    0.0012
  3379.000    0.0012
  3380.000    0.0012
  3381.000    0.0012
  3382.000    0.0012
  3383.000    0.0012
  3384.000    0.0012
  3385.000    0.0012
  3386.000    0.0012
  3387.000    0.0012
  3388.000    0.0012
  3389.000    0.0012
  3390.000    0.0012
  3391.000    0.0012
  3392.000    0.0011
  3393.000    0.0011
  3394.000    0.0011
  3395.000    0.0011
  3396.000    0.0011
  3397.000    0.0011
  3398.000    0.0011
  3399.000    0.0011
  3400.000    0.0011
  3401.000    0.0011
  3402.000    0.0011
  3403.000    0.0011
  3404.000    0.0011
  3405.000    0.0011
  3406.000    0.0011
  3407.000    0.0011
  3408.000    0.0011
  3409.000    0.0011
  3410.000    0.0011
  3411.000    0.0011
  3412.000    0.0011
  3413.000    0.0011
  3414.000    0.0011
  3415.000    0.0011
  3416.000    0.0011
  3417.000    0.0011
  3418.000    0.0011
  3419.000    0.0011
  3420.000    0.0011
  3421.000    0.0011
  3422.000    0.0011
  3423.000    0.0011
  3424.000    0.0011
  3425.000    0.0011
  3426.000    0.0011
  3427.000    0.0011
  3428.000    0.0011
  3429.000    0.0011
  3430.000    0.0011
  3431.000    0.0011
  3432.000    0.0011
  3433.000    0.0011
  3434.000    0.0011
  3435.000    0.0011
  3436.000    0.0011
  3437.000    0.0011
  3438.000    0.0011
  3439.000    0.0011
  3440.000    0.0011
  3441.000    0.0011
  3442.000    0.0011
  3443.000    0.0011
  3444.000    0.0010
  3445.000    0.0010
  3446.000    0.0010
  3447.000    0.0010
  3448.000    0.0010
  3449.000    0.0010
  3450.000    0.0010
  3451.000    0.0010
  3452.000    0.0010
  3453.000    0.0010
  3454.000    0.0010
  3455.000    0.0010
  3456.000    0.0010
  3457.000    0.0010
  3458.000    0.0010
  3459.000    0.0010
  3460.000    0.0010
  3461.000    0.0010
  3462.000    0.0010
  3463.000    0.0010
  3464.000    0.0010
  3465.000    0.0010
  3466.000    0.0010
  3467.000    0.0010
  3468.000    0.0010
  3469.000    0.0010
  3470.000    0.0010
  3471.000    0.0010
  3472.000    0.0010
  3473.000    0.0010
  3474.000    0.0010
  3475.000    0.0010
  3476.000    0.0010
  3477.000    0.0010
  3478.000    0.0010
  3479.000    0.0010
  3480.000    0.0010
  3481.000    0.0010
  3482.000    0.0010
  3483.000    0.0010
  3484.000    0.0010
  3485.000    0.0010
  3486.000    0.0010
  3487.000    0.0010
  3488.000    0.0010
  3489.000    0.0010
  3490.000    0.0010
  3491.000    0.0010
  3492.000    0.0010
  3493.000    0.0010
  3494.000    0.0010
  3495.000    0.0010
  3496.000    0.0011
  3497.000    0.0011
  3498.000    0.0011
  3499.000    0.0011
  3500.000    0.0011
  3501.000    0.0011
  3502.000    0.0011
  3503.000    0.0011
  3504.000    0.0011
  3505.000    0.0011
  3506.000    0.0011
  3507.000    0.0011
  3508.000    0.0011
  3509.000    0.0011
  3510.000    0.0011
  3511.000    0.0011
  3512.000    0.0011
  3513.000    0.0011
  3514.000    0.0011
  3515.000    0.0011
  3516.000    0.0011
  3517.000    0.0011
  3518.000    0.0011
  3519.000    0.0011
  3520.000    0.0011
  3521.000    0.0011
  3522.000    0.0011
  3523.000    0.0011
  3524.000    0.0011
  3525.000    0.0011
  3526.000    0.0011
  3527.000    0.0011
  3528.000    0.0011
  3529.000    0.0011
  3530.000    0.0011
  3531.000    0.0011
  3532.000    0.0011
  3533.000    0.0012
  3534.000    0.0012
  3535.000    0.0012
  3536.000    0.0012
  3537.000    0.0012
  3538.000    0.0012
  3539.000    0.0012
  3540.000    0.0012
  3541.000    0.0012
  3542.000    0.0012
  3543.000    0.0012
  3544.000    0.0012
  3545.000    0.0012
  3546.000    0.0012
  3547.000    0.0012
  3548.000    0.0012
  3549.000    0.0012
  3550.000    0.0013
  3551.000    0.0013
  3552.000    0.0013
  3553.000    0.0013
  3554.000    0.0013
  3555.000    0.0013
  3556.000    0.0013
  3557.000    0.0013
  3558.000    0.0013
  3559.000    0.0013
  3560.000    0.0013
  3561.000    0.0013
  3562.000    0.0014
  3563.000    0.0014
  3564.000    0.0014
  3565.000    0.0014
  3566.000    0.0014
  3567.000    0.0014
  3568.000    0.0014
  3569.000    0.0014
  3570.000    0.0014
  3571.000    0.0015
  3572.000    0.0015
  3573.000    0.0015
  3574.000    0.0015
  3575.000    0.0015
  3576.000    0.0015
  3577.000    0.0015
  3578.000    0.0015
  3579.000    0.0016
  3580.000    0.0016
  3581.000    0.0016
  3582.000    0.0016
  3583.000    0.0016
  3584.000    0.0017
  3585.000    0.0017
  3586.000    0.0017
  3587.000    0.0017
  3588.000    0.0017
  3589.000    0.0017
  3590.000    0.0018
  3591.000    0.0018
  3592.000    0.0018
  3593.000    0.0018
  3594.000    0.0019
  3595.000    0.0019
  3596.000    0.0019
  3597.000    0.0019
  3598.000    0.0020
  3599.000    0.0020
  3600.000    0.0020
  3601.000    0.0021
  3602.000    0.0021
  3603.000    0.0021
  3604.000    0.0022
  3605.000    0.0022
  3606.000    0.0022
  3607.000    0.0023
  3608.000    0.0023
  3609.000    0.0024
  3610.000    0.0024
  3611.000    0.0024
  3612.000    0.0025
  3613.000    0.0025
  3614.000    0.0026
  3615.000    0.0026
  3616.000    0.0027
  3617.000    0.0027
  3618.000    0.0028
  3619.000    0.0029
  3620.000    0.0029
  3621.000    0.0030
  3622.000    0.0031
  3623.000    0.0031
  3624.000    0.0032
  3625.000    0.0033
  3626.000    0.0034
  3627.000    0.0034
  3628.000    0.0035
  3629.000    0.0036
  3630.000    0.0037
  3631.000    0.0038
  3632.000    0.0039
  3633.000    0.0040
  3634.000    0.0042
  3635.000    0.0043
  3636.000    0.0044
  3637.000    0.0046
  3638.000    0.0047
  3639.000    0.0049
  3640.000    0.0050
  3641.000    0.0052
  3642.000    0.0054
  3643.000    0.0056
  3644.000    0.0058
  3645.000    0.0060
  3646.000    0.0062
  3647.000    0.0065
  3648.000    0.0068
  3649.000    0.0070
  3650.000    0.0073
  3651.000    0.0077
  3652.000    0.0080
  3653.000    0.0084
  3654.000    0.0088
  3655.000    0.0092
  3656.000    0.0097
  3657.000    0.0102
  3658.000    0.0108
  3659.000    0.0114
  3660.000    0.0120
  3661.000    0.0128
  3662.000    0.0136
  3663.000    0.0144
  3664.000    0.0154
  3665.000    0.0164
  3666.000    0.0176
  3667.000    0.0189
  3668.000    0.0204
  3669.000    0.0220
  3670.000    0.0239
  3671.000    0.0260
  3672.000    0.0283
  3673.000    0.0311
  3674.000    0.0342
  3675.000    0.0378
  3676.000    0.0421
  3677.000    0.0470
  3678.000    0.0529
  3679.000    0.0599
  3680.000    0.0684
  3681.000    0.0786
  3682.000    0.0912
  3683.000    0.1069
  3684.000    0.1264
  3685.000    0.1509
  3686.000    0.1820
  3687.000    0.2209
  3688.000    0.2688
  3689.000    0.3252
  3690.000    0.3856
  3691.000    0.4402
  3692.000    0.4755
  3693.000    0.4818
  3694.000    0.4596
  3695.000    0.4170
  3696.000    0.3635
  3697.000    0.3078
  3698.000    0.2560
  3699.000    0.2114
  3700.000    0.1748
  3701.000    0.1454
  3702.000    0.1220
  3703.000    0.1033
  3704.000    0.0884
  3705.000    0.0763
  3706.000    0.0664
  3707.000    0.0583
  3708.000    0.0515
  3709.000    0.0458
  3710.000    0.0410
  3711.000    0.0369
  3712.000    0.0334
  3713.000    0.0304
  3714.000    0.0277
  3715.000    0.0254
  3716.000    0.0234
  3717.000    0.0216
  3718.000    0.0200
  3719.000    0.0186
  3720.000    0.0173
  3721.000    0.0161
  3722.000    0.0151
  3723.000    0.0142
  3724.000    0.0133
  3725.000    0.0125
  3726.000    0.0118
  3727.000    0.0112
  3728.000    0.0106
  3729.000    0.0100
  3730.000    0.0095
  3731.000    0.0091
  3732.000    0.0086
  3733.000    0.0082
  3734.000    0.0079
  3735.000    0.0075
  3736.000    0.0072
  3737.000    0.0069
  3738.000    0.0066
  3739.000    0.0064
  3740.000    0.0061
  3741.000    0.0059
  3742.000    0.0057
  3743.000    0.0054
  3744.000    0.0053
  3745.000    0.0051
  3746.000    0.0049
  3747.000    0.0047
  3748.000    0.0046
  3749.000    0.0044
  3750.000    0.0043
  3751.000    0.0042
  3752.000    0.0040
  3753.000    0.0039
  3754.000    0.0038
  3755.000    0.0037
  3756.000    0.0036
  3757.000    0.0035
  3758.000    0.0034
  3759.000    0.0033
  3760.000    0.0032
  3761.000    0.0031
  3762.000    0.0031
  3763.000    0.0030
  3764.000    0.0029
  3765.000    0.0028
  3766.000    0.0028
  3767.000    0.0027
  3768.000    0.0027
  3769.000    0.0026
  3770.000    0.0025
  3771.000    0.0025
  3772.000    0.0024
  3773.000    0.0024
  3774.000    0.0023
  3775.000    0.0023
  3776.000    0.0022
  3777.000    0.0022
  3778.000    0.0021
  3779.000    0.0021
  3780.000    0.0021
  3781.000    0.0020
  3782.000    0.0020
  3783.000    0.0020
  3784.000    0.0019
  3785.000    0.0019
  3786.000    0.0019
  3787.000    0.0018
  3788.000    0.0018
  3789.000    0.0018
  3790.000    0.0017
  3791.000    0.0017
  3792.000    0.0017
  3793.000    0.0017
  3794.000    0.0016
  3795.000    0.0016
  3796.000    0.0016
  3797.000    0.0016
  3798.000    0.0015
  3799.000    0.0015
  3800.000    0.0015
